File: Sample Data/Concentration Curve Data/C-COM1/SWV_10Hz STD1 50  fgml 081020_#1.DTA
EXPLAIN
TAG	SQUARE_WAVE
TITLE	LABEL	Square Wave Voltammetry	Test Identifier
DATE	LABEL	8/10/2020	Date
TIME	LABEL	18:58:49	Time
NOTES	NOTES	1	Notes...
	 STD1 50  fg/mL 08102
PSTAT	PSTAT	REF600-24079	Potentiostat
VINIT	QUANT	-3.50000E-001	Initial E (V)
VFINAL	QUANT	-1.50000E-001	Final E (V)
STEPSIZE	QUANT	2.00000E+000	Step Size (mV)
TIMERRES	QUANT	3.33340E-005	&Timer Resolution
FREQUENCY	QUANT	1.00000E+001	Frequency (Hz)
PULSESIZE	QUANT	2.50000E+001	Pulse Size E (mV)
PULSEON	QUANT	1.00000E-001	Pulse &Time (s)
NOISEREJECT	TOGGLE	F	Noise Rejection
AREA	QUANT	2.00000E-002	Sample Area (cm^2)
IMODE	SELECTOR	1	I/E Range Mode
IRANGE	QUANT	1.00000E-003	Max Current (mA)
EQDELAY	IQUANT	10	Equil. Time (s)
IRCOMP	SELECTOR	0	IRComp
PFCOR	QUANT	5.00000E+001	PF Corr. (ohm)
CYCLES	IQUANT	101	C&ycles (#)
ELECTRODETYPE	SELECTOR	0	Electrode Type
STRIPPING	TOGGLE	F	Used for Stripping
POLARITY	TOGGLE	F	Signal Polarity
LINEFREQ	IQUANT	60	Line Frequency (Hz)
INTPERIOD	QUANT	3.3334E-005	Integration Period (s)
SEQUENCER	TOGGLE	TRUE	Run as Sequence
PSTATMODEL	IQUANT	4	Pstat Model
PSTATSECTION	LABEL	REF600-24079	Pstat Section
PSTATSERIALNO	LABEL	24079	Pstat Serial Number
CTRLMODE	IQUANT	1	Control Mode
ELECTROMETER	IQUANT	0	RE=0 or CS=1
IESTAB	IQUANT	2	I/E Stability
CASPEED	IQUANT	6	Control Amp Speed
CONVENTION	IQUANT	1	Current Convention
ICHRANGE	IQUANT	2	Ich Range
ICHRANGEMODE	TOGGLE	F	Ich Auto Range
ICHOFFSETENABLE	TOGGLE	F	Ich Offset Enable
ICHOFFSET	QUANT	0	Ich Offset (V)
ICHFILTER	IQUANT	2	Ich Filter
VCHRANGE	IQUANT	2	Vch Range
VCHRANGEMODE	TOGGLE	F	Vch Auto Range
VCHOFFSETENABLE	TOGGLE	F	Vch Offset Enable
VCHOFFSET	QUANT	0	Vch Offset (V)
VCHFILTER	IQUANT	2	Vch Filter
ACHRANGE	IQUANT	2	Ach Range
ACHOFFSETENABLE	TOGGLE	F	Ach Offset Enable
ACHOFFSET	QUANT	0	Ach Offset (V)
ACHFILTER	IQUANT	1	Ach Filter
IERANGELOWERLIMIT	IQUANT	1	I/E Range Lower Limit
IERANGEMODE	TOGGLE	F	I/E AutoRange
IERANGE	IQUANT	6	I/E Range
POSFEEDENABLE	TOGGLE	F	Positive Feedback IR Comp
POSFEEDRESISTANCE	QUANT	0	Positive Feedback Resistance (ohm)
ACHSELECT	IQUANT	0	Ach Select
SENSECABLEID	IQUANT	13	Sense Cable ID
PWRCABLEID	IQUANT	13	Power Cable ID
DCCALDATE	LABEL	6/30/2020	DC Calibration Date
ACCALDATE	LABEL	6/30/2020	AC Calibration Date
THERMOSELECT	IQUANT	1	Thermo Select
FRAMEWORKVERSION	LABEL	7.8.2	Framework Version
INSTRUMENTVERSION	LABEL	4.40	Instrument Version
CURVE	TABLE	101
	Pt	T	Vfwd	Vrev	Vstep	Ifwd	Irev	Idif	Sig	Ach	IERange	Over	Temp
	#	s	V	V	V	A	A	A	V	V	#	bits	deg C
	0	0.1	-3.25058E-001	-3.75008E-001	-3.50033E-001	-2.13765E-007	-4.30171E-007	2.16407E-007	-3.75000E-001	4.23873E-004	6	..........a	-327.68
	2	0.3	-3.21077E-001	-3.70986E-001	-3.46031E-001	-1.90657E-007	-4.00882E-007	2.10225E-007	-3.71000E-001	4.22039E-004	6	..........a	-327.68
	4	0.5	-3.17112E-001	-3.67023E-001	-3.42067E-001	-1.77575E-007	-3.77212E-007	1.99637E-007	-3.67000E-001	4.24373E-004	6	..........a	-327.68
	6	0.7	-3.13096E-001	-3.62944E-001	-3.38020E-001	-1.65835E-007	-3.55602E-007	1.89767E-007	-3.63000E-001	4.18039E-004	6	..........a	-327.68
	8	0.9	-3.09079E-001	-3.59016E-001	-3.34048E-001	-1.54896E-007	-3.35734E-007	1.80838E-007	-3.59000E-001	4.14873E-004	6	..........a	-327.68
	10	1.1	-3.05107E-001	-3.54955E-001	-3.30031E-001	-1.44348E-007	-3.17115E-007	1.72767E-007	-3.55000E-001	4.21873E-004	6	..........a	-327.68
	12	1.3	-3.01093E-001	-3.51017E-001	-3.26055E-001	-1.34979E-007	-3.00180E-007	1.65201E-007	-3.51000E-001	4.16539E-004	6	..........a	-327.68
	14	1.5	-2.97074E-001	-3.46988E-001	-3.22031E-001	-1.25895E-007	-2.84093E-007	1.58198E-007	-3.47000E-001	4.23373E-004	6	..........a	-327.68
	16	1.7	-2.93066E-001	-3.43011E-001	-3.18039E-001	-1.17424E-007	-2.69004E-007	1.51579E-007	-3.43000E-001	4.20206E-004	6	..........a	-327.68
	18	1.9	-2.89109E-001	-3.38986E-001	-3.14048E-001	-1.09336E-007	-2.55125E-007	1.45789E-007	-3.39000E-001	4.14706E-004	6	..........a	-327.68
	20	2.1	-2.85099E-001	-3.35052E-001	-3.10076E-001	-1.01613E-007	-2.41840E-007	1.40228E-007	-3.35000E-001	4.16539E-004	6	..........a	-327.68
	22	2.3	-2.81124E-001	-3.30956E-001	-3.06040E-001	-9.46235E-008	-2.29482E-007	1.34859E-007	-3.31000E-001	4.21706E-004	6	..........a	-327.68
	24	2.5	-2.77100E-001	-3.27023E-001	-3.02062E-001	-8.76226E-008	-2.17718E-007	1.30095E-007	-3.27000E-001	4.20373E-004	6	..........a	-327.68
	26	2.7	-2.73058E-001	-3.22996E-001	-2.98027E-001	-8.11231E-008	-2.06165E-007	1.25042E-007	-3.23000E-001	4.18039E-004	6	..........a	-327.68
	28	2.9	-2.69039E-001	-3.19079E-001	-2.94059E-001	-7.48613E-008	-1.96277E-007	1.21415E-007	-3.19000E-001	4.15539E-004	6	..........a	-327.68
	30	3.1	-2.65125E-001	-3.14960E-001	-2.90043E-001	-6.92046E-008	-1.86353E-007	1.17149E-007	-3.15000E-001	4.24206E-004	6	..........a	-327.68
	32	3.3	-2.61080E-001	-3.10998E-001	-2.86039E-001	-6.36592E-008	-1.76848E-007	1.13189E-007	-3.11000E-001	4.19539E-004	6	..........a	-327.68
	34	3.5	-2.57071E-001	-3.06954E-001	-2.82013E-001	-5.81612E-008	-1.68107E-007	1.09946E-007	-3.07000E-001	4.19539E-004	6	..........a	-327.68
	36	3.7	-2.53084E-001	-3.03038E-001	-2.78061E-001	-5.31582E-008	-1.59833E-007	1.06675E-007	-3.03000E-001	4.19706E-004	6	..........a	-327.68
	38	3.9	-2.49076E-001	-2.99011E-001	-2.74043E-001	-4.85156E-008	-1.52198E-007	1.03683E-007	-2.99000E-001	4.14206E-004	6	..........a	-327.68
	40	4.1	-2.45049E-001	-2.95015E-001	-2.70032E-001	-4.42610E-008	-1.44800E-007	1.00539E-007	-2.95000E-001	4.17373E-004	6	..........a	-327.68
	42	4.3	-2.41123E-001	-2.90949E-001	-2.66036E-001	-4.02325E-008	-1.37467E-007	9.72344E-008	-2.91000E-001	4.16539E-004	6	..........a	-327.68
	44	4.5	-2.37080E-001	-2.87007E-001	-2.62043E-001	-3.62140E-008	-1.30939E-007	9.47251E-008	-2.87000E-001	4.15873E-004	6	..........a	-327.68
	46	4.7	-2.33104E-001	-2.82971E-001	-2.58038E-001	-3.24545E-008	-1.24560E-007	9.21050E-008	-2.83000E-001	4.21539E-004	6	..........a	-327.68
	48	4.9	-2.29112E-001	-2.79032E-001	-2.54072E-001	-2.89284E-008	-1.18677E-007	8.97481E-008	-2.79000E-001	4.16706E-004	6	..........a	-327.68
	50	5.1	-2.25103E-001	-2.74992E-001	-2.50048E-001	-2.58344E-008	-1.12672E-007	8.68377E-008	-2.75000E-001	4.24706E-004	6	..........a	-327.68
	52	5.3	-2.21072E-001	-2.71005E-001	-2.46039E-001	-2.26650E-008	-1.07330E-007	8.46648E-008	-2.71000E-001	4.18206E-004	6	..........a	-327.68
	54	5.5	-2.17130E-001	-2.66942E-001	-2.42036E-001	-1.98736E-008	-1.02283E-007	8.24092E-008	-2.67000E-001	4.16706E-004	6	..........a	-327.68
	56	5.7	-2.13092E-001	-2.63009E-001	-2.38050E-001	-1.71509E-008	-9.72885E-008	8.01375E-008	-2.63000E-001	4.21206E-004	6	..........a	-327.68
	58	5.9	-2.09112E-001	-2.58957E-001	-2.34034E-001	-1.48160E-008	-9.25922E-008	7.77762E-008	-2.59000E-001	4.19873E-004	6	..........a	-327.68
	60	6.1	-2.05098E-001	-2.55075E-001	-2.30086E-001	-1.23026E-008	-8.82893E-008	7.59867E-008	-2.55000E-001	4.16873E-004	6	..........a	-327.68
	62	6.3	-2.01104E-001	-2.50976E-001	-2.26040E-001	-1.00534E-008	-8.40158E-008	7.39624E-008	-2.51000E-001	4.28873E-004	6	..........a	-327.68
	64	6.5	-1.97088E-001	-2.46995E-001	-2.22041E-001	-7.92009E-009	-8.01570E-008	7.22369E-008	-2.47000E-001	4.24206E-004	6	..........a	-327.68
	66	6.7	-1.93063E-001	-2.42995E-001	-2.18029E-001	-5.79815E-009	-7.61958E-008	7.03976E-008	-2.43000E-001	4.21206E-004	6	..........a	-327.68
	68	6.9	-1.89122E-001	-2.39035E-001	-2.14078E-001	-4.00893E-009	-7.27330E-008	6.87241E-008	-2.39000E-001	4.25706E-004	6	..........a	-327.68
	70	7.1	-1.85117E-001	-2.34968E-001	-2.10043E-001	-2.36905E-009	-6.93676E-008	6.69985E-008	-2.35000E-001	4.23373E-004	6	..........a	-327.68
	72	7.3	-1.81108E-001	-2.31004E-001	-2.06056E-001	-4.99814E-010	-6.60548E-008	6.55550E-008	-2.31000E-001	4.26206E-004	6	..........a	-327.68
	74	7.5	-1.77110E-001	-2.26967E-001	-2.02038E-001	1.18873E-009	-6.32335E-008	6.44222E-008	-2.27000E-001	4.17373E-004	6	..........a	-327.68
	76	7.7	-1.73106E-001	-2.22985E-001	-1.98045E-001	2.62192E-009	-6.04721E-008	6.30940E-008	-2.23000E-001	4.21873E-004	6	..........a	-327.68
	78	7.9	-1.69102E-001	-2.18997E-001	-1.94050E-001	3.93608E-009	-5.77631E-008	6.16992E-008	-2.19000E-001	4.21039E-004	6	..........a	-327.68
	80	8.1	-1.65078E-001	-2.14996E-001	-1.90037E-001	5.35226E-009	-5.53205E-008	6.06727E-008	-2.15000E-001	4.28706E-004	6	..........a	-327.68
	82	8.3	-1.61121E-001	-2.10988E-001	-1.86054E-001	6.72844E-009	-5.27831E-008	5.95116E-008	-2.11000E-001	4.29206E-004	6	..........a	-327.68
	84	8.5	-1.57121E-001	-2.07032E-001	-1.82076E-001	7.83825E-009	-5.07519E-008	5.85901E-008	-2.07000E-001	4.16373E-004	6	..........a	-327.68
	86	8.7	-1.53125E-001	-2.02982E-001	-1.78053E-001	9.16475E-009	-4.84949E-008	5.76597E-008	-2.03000E-001	4.16873E-004	6	..........a	-327.68
	88	8.9	-1.49107E-001	-1.99040E-001	-1.74073E-001	1.02232E-008	-4.68877E-008	5.71109E-008	-1.99000E-001	4.15873E-004	6	..........a	-327.68
	90	9.1	-1.45101E-001	-1.95019E-001	-1.70060E-001	1.13684E-008	-4.50445E-008	5.64128E-008	-1.95000E-001	4.16706E-004	6	..........a	-327.68
	92	9.3	-1.41096E-001	-1.91062E-001	-1.66079E-001	1.25245E-008	-4.33903E-008	5.59148E-008	-1.91000E-001	4.15539E-004	6	..........a	-327.68
	94	9.5	-1.37123E-001	-1.86974E-001	-1.62048E-001	1.32866E-008	-4.18301E-008	5.51167E-008	-1.87000E-001	4.21539E-004	6	..........a	-327.68
	96	9.7	-1.33101E-001	-1.83051E-001	-1.58076E-001	1.44057E-008	-4.01272E-008	5.45329E-008	-1.83000E-001	4.25539E-004	6	..........a	-327.68
	98	9.9	-1.29097E-001	-1.78950E-001	-1.54024E-001	1.51032E-008	-3.87463E-008	5.38495E-008	-1.79000E-001	4.29706E-004	6	..........a	-327.68
	100	10.1	-1.25111E-001	-1.75057E-001	-1.50084E-001	1.60950E-008	-3.73058E-008	5.34008E-008	-1.75000E-001	4.22539E-004	6	..........a	-327.68