File: Sample Data/Concentration Curve Data/C-COM1/SWV_10Hz STD1 100  fgml 081020_#9.DTA
EXPLAIN
TAG	SQUARE_WAVE
TITLE	LABEL	Square Wave Voltammetry	Test Identifier
DATE	LABEL	8/10/2020	Date
TIME	LABEL	20:05:35	Time
NOTES	NOTES	1	Notes...
	 STD1 100  fg/mL 08102
PSTAT	PSTAT	REF600-24079	Potentiostat
VINIT	QUANT	-3.50000E-001	Initial E (V)
VFINAL	QUANT	-1.50000E-001	Final E (V)
STEPSIZE	QUANT	2.00000E+000	Step Size (mV)
TIMERRES	QUANT	3.33340E-005	&Timer Resolution
FREQUENCY	QUANT	1.00000E+001	Frequency (Hz)
PULSESIZE	QUANT	2.50000E+001	Pulse Size E (mV)
PULSEON	QUANT	1.00000E-001	Pulse &Time (s)
NOISEREJECT	TOGGLE	F	Noise Rejection
AREA	QUANT	2.00000E-002	Sample Area (cm^2)
IMODE	SELECTOR	1	I/E Range Mode
IRANGE	QUANT	1.00000E-003	Max Current (mA)
EQDELAY	IQUANT	10	Equil. Time (s)
IRCOMP	SELECTOR	0	IRComp
PFCOR	QUANT	5.00000E+001	PF Corr. (ohm)
CYCLES	IQUANT	101	C&ycles (#)
ELECTRODETYPE	SELECTOR	0	Electrode Type
STRIPPING	TOGGLE	F	Used for Stripping
POLARITY	TOGGLE	F	Signal Polarity
LINEFREQ	IQUANT	60	Line Frequency (Hz)
INTPERIOD	QUANT	3.3334E-005	Integration Period (s)
SEQUENCER	TOGGLE	TRUE	Run as Sequence
PSTATMODEL	IQUANT	4	Pstat Model
PSTATSECTION	LABEL	REF600-24079	Pstat Section
PSTATSERIALNO	LABEL	24079	Pstat Serial Number
CTRLMODE	IQUANT	1	Control Mode
ELECTROMETER	IQUANT	0	RE=0 or CS=1
IESTAB	IQUANT	2	I/E Stability
CASPEED	IQUANT	6	Control Amp Speed
CONVENTION	IQUANT	1	Current Convention
ICHRANGE	IQUANT	2	Ich Range
ICHRANGEMODE	TOGGLE	F	Ich Auto Range
ICHOFFSETENABLE	TOGGLE	F	Ich Offset Enable
ICHOFFSET	QUANT	0	Ich Offset (V)
ICHFILTER	IQUANT	2	Ich Filter
VCHRANGE	IQUANT	2	Vch Range
VCHRANGEMODE	TOGGLE	F	Vch Auto Range
VCHOFFSETENABLE	TOGGLE	F	Vch Offset Enable
VCHOFFSET	QUANT	0	Vch Offset (V)
VCHFILTER	IQUANT	2	Vch Filter
ACHRANGE	IQUANT	2	Ach Range
ACHOFFSETENABLE	TOGGLE	F	Ach Offset Enable
ACHOFFSET	QUANT	0	Ach Offset (V)
ACHFILTER	IQUANT	1	Ach Filter
IERANGELOWERLIMIT	IQUANT	1	I/E Range Lower Limit
IERANGEMODE	TOGGLE	F	I/E AutoRange
IERANGE	IQUANT	6	I/E Range
POSFEEDENABLE	TOGGLE	F	Positive Feedback IR Comp
POSFEEDRESISTANCE	QUANT	0	Positive Feedback Resistance (ohm)
ACHSELECT	IQUANT	0	Ach Select
SENSECABLEID	IQUANT	13	Sense Cable ID
PWRCABLEID	IQUANT	13	Power Cable ID
DCCALDATE	LABEL	6/30/2020	DC Calibration Date
ACCALDATE	LABEL	6/30/2020	AC Calibration Date
THERMOSELECT	IQUANT	1	Thermo Select
FRAMEWORKVERSION	LABEL	7.8.2	Framework Version
INSTRUMENTVERSION	LABEL	4.40	Instrument Version
CURVE	TABLE	101
	Pt	T	Vfwd	Vrev	Vstep	Ifwd	Irev	Idif	Sig	Ach	IERange	Over	Temp
	#	s	V	V	V	A	A	A	V	V	#	bits	deg C
	0	0.1	-3.25012E-001	-3.74950E-001	-3.49981E-001	-1.65085E-007	-3.23383E-007	1.58298E-007	-3.75000E-001	4.05206E-004	6	..........a	-327.68
	2	0.3	-3.21005E-001	-3.70869E-001	-3.45937E-001	-1.44012E-007	-3.03938E-007	1.59925E-007	-3.71000E-001	3.76706E-004	6	..........a	-327.68
	4	0.5	-3.17040E-001	-3.66993E-001	-3.42016E-001	-1.35251E-007	-2.89436E-007	1.54185E-007	-3.67000E-001	3.69706E-004	6	..........a	-327.68
	6	0.7	-3.13052E-001	-3.62885E-001	-3.37969E-001	-1.27034E-007	-2.76376E-007	1.49343E-007	-3.63000E-001	3.93706E-004	6	..........a	-327.68
	8	0.9	-3.09014E-001	-3.58938E-001	-3.33976E-001	-1.19763E-007	-2.64071E-007	1.44309E-007	-3.59000E-001	4.01873E-004	6	..........a	-327.68
	10	1.1	-3.05072E-001	-3.54935E-001	-3.30003E-001	-1.12641E-007	-2.52477E-007	1.39836E-007	-3.55000E-001	3.90706E-004	6	..........a	-327.68
	12	1.3	-3.01043E-001	-3.50950E-001	-3.25997E-001	-1.05785E-007	-2.41020E-007	1.35235E-007	-3.51000E-001	3.89206E-004	6	..........a	-327.68
	14	1.5	-2.97018E-001	-3.46959E-001	-3.21989E-001	-9.93904E-008	-2.30272E-007	1.30882E-007	-3.47000E-001	3.87039E-004	6	..........a	-327.68
	16	1.7	-2.92893E-001	-3.42972E-001	-3.17932E-001	-9.32179E-008	-2.19805E-007	1.26587E-007	-3.43000E-001	3.87373E-004	6	..........a	-327.68
	18	1.9	-2.89071E-001	-3.38912E-001	-3.13991E-001	-8.71655E-008	-2.09913E-007	1.22747E-007	-3.39000E-001	3.84539E-004	6	..........a	-327.68
	20	2.1	-2.85041E-001	-3.34968E-001	-3.10004E-001	-8.15165E-008	-2.00732E-007	1.19215E-007	-3.35000E-001	3.90039E-004	6	..........a	-327.68
	22	2.3	-2.81092E-001	-3.30913E-001	-3.06003E-001	-7.55924E-008	-1.91559E-007	1.15966E-007	-3.31000E-001	3.85706E-004	6	..........a	-327.68
	24	2.5	-2.77037E-001	-3.26956E-001	-3.01996E-001	-7.04534E-008	-1.82794E-007	1.12341E-007	-3.27000E-001	3.96873E-004	6	..........a	-327.68
	26	2.7	-2.72987E-001	-3.22968E-001	-2.97977E-001	-6.51674E-008	-1.74423E-007	1.09255E-007	-3.23000E-001	3.98039E-004	6	..........a	-327.68
	28	2.9	-2.68981E-001	-3.18896E-001	-2.93938E-001	-6.03834E-008	-1.66311E-007	1.05928E-007	-3.19000E-001	4.05539E-004	6	..........a	-327.68
	30	3.1	-2.65108E-001	-3.14944E-001	-2.90026E-001	-5.57248E-008	-1.58789E-007	1.03064E-007	-3.15000E-001	4.01206E-004	6	..........a	-327.68
	32	3.3	-2.61063E-001	-3.10940E-001	-2.86001E-001	-5.10192E-008	-1.51483E-007	1.00464E-007	-3.11000E-001	4.00039E-004	6	..........a	-327.68
	34	3.5	-2.57050E-001	-3.06923E-001	-2.81986E-001	-4.69827E-008	-1.44525E-007	9.75424E-008	-3.07000E-001	3.87539E-004	6	..........a	-327.68
	36	3.7	-2.53066E-001	-3.02991E-001	-2.78028E-001	-4.27365E-008	-1.37818E-007	9.50811E-008	-3.03000E-001	3.76373E-004	6	..........a	-327.68
	38	3.9	-2.49028E-001	-2.98946E-001	-2.73987E-001	-3.87267E-008	-1.31544E-007	9.28171E-008	-2.99000E-001	3.78373E-004	6	..........a	-327.68
	40	4.1	-2.45012E-001	-2.94954E-001	-2.69983E-001	-3.49552E-008	-1.25480E-007	9.05245E-008	-2.95000E-001	3.89873E-004	6	..........a	-327.68
	42	4.3	-2.41114E-001	-2.90883E-001	-2.65998E-001	-3.12164E-008	-1.19478E-007	8.82619E-008	-2.91000E-001	3.84373E-004	6	..........a	-327.68
	44	4.5	-2.37010E-001	-2.86953E-001	-2.61982E-001	-2.79683E-008	-1.13854E-007	8.58853E-008	-2.87000E-001	3.96373E-004	6	..........a	-327.68
	46	4.7	-2.33063E-001	-2.82917E-001	-2.57990E-001	-2.47539E-008	-1.08665E-007	8.39110E-008	-2.83000E-001	4.02206E-004	6	..........a	-327.68
	48	4.9	-2.29075E-001	-2.78969E-001	-2.54022E-001	-2.16425E-008	-1.03248E-007	8.16054E-008	-2.79000E-001	3.92039E-004	6	..........a	-327.68
	50	5.1	-2.25043E-001	-2.74957E-001	-2.50000E-001	-1.89045E-008	-9.88360E-008	7.99315E-008	-2.75000E-001	3.98373E-004	6	..........a	-327.68
	52	5.3	-2.20994E-001	-2.70960E-001	-2.45977E-001	-1.63035E-008	-9.41537E-008	7.78502E-008	-2.71000E-001	3.87873E-004	6	..........a	-327.68
	54	5.5	-2.17094E-001	-2.66846E-001	-2.41970E-001	-1.36885E-008	-8.97882E-008	7.60997E-008	-2.67000E-001	3.85206E-004	6	..........a	-327.68
	56	5.7	-2.13011E-001	-2.62959E-001	-2.37985E-001	-1.10885E-008	-8.55133E-008	7.44248E-008	-2.63000E-001	3.83373E-004	6	..........a	-327.68
	58	5.9	-2.09045E-001	-2.58898E-001	-2.33971E-001	-8.77820E-009	-8.15951E-008	7.28169E-008	-2.59000E-001	3.92039E-004	6	..........a	-327.68
	60	6.1	-2.05044E-001	-2.54949E-001	-2.29997E-001	-6.78528E-009	-7.76953E-008	7.09100E-008	-2.55000E-001	3.94539E-004	6	..........a	-327.68
	62	6.3	-2.01049E-001	-2.50932E-001	-2.25990E-001	-4.63134E-009	-7.40328E-008	6.94015E-008	-2.51000E-001	4.02039E-004	6	..........a	-327.68
	64	6.5	-1.97021E-001	-2.46926E-001	-2.21974E-001	-2.43006E-009	-7.04427E-008	6.80127E-008	-2.47000E-001	4.01373E-004	6	..........a	-327.68
	66	6.7	-1.93013E-001	-2.42878E-001	-2.17945E-001	-6.75503E-010	-6.70586E-008	6.63831E-008	-2.43000E-001	3.94706E-004	6	..........a	-327.68
	68	6.9	-1.89060E-001	-2.38925E-001	-2.13993E-001	1.14873E-009	-6.41082E-008	6.52570E-008	-2.39000E-001	4.02873E-004	6	..........a	-327.68
	70	7.1	-1.85076E-001	-2.34878E-001	-2.09977E-001	2.57491E-009	-6.09005E-008	6.34754E-008	-2.35000E-001	3.93039E-004	6	..........a	-327.68
	72	7.3	-1.81071E-001	-2.30920E-001	-2.05996E-001	4.13978E-009	-5.79475E-008	6.20872E-008	-2.31000E-001	3.94539E-004	6	..........a	-327.68
	74	7.5	-1.77072E-001	-2.26936E-001	-2.02004E-001	5.72931E-009	-5.55998E-008	6.13291E-008	-2.27000E-001	3.99539E-004	6	..........a	-327.68
	76	7.7	-1.73051E-001	-2.22941E-001	-1.97996E-001	7.34285E-009	-5.28455E-008	6.01883E-008	-2.23000E-001	3.95539E-004	6	..........a	-327.68
	78	7.9	-1.69029E-001	-2.18965E-001	-1.93997E-001	8.58067E-009	-5.05212E-008	5.91019E-008	-2.19000E-001	3.76373E-004	6	..........a	-327.68
	80	8.1	-1.64856E-001	-2.14920E-001	-1.89888E-001	9.80483E-009	-4.81415E-008	5.79464E-008	-2.15000E-001	3.79706E-004	6	..........a	-327.68
	82	8.3	-1.61058E-001	-2.10939E-001	-1.85998E-001	1.11240E-008	-4.60466E-008	5.71706E-008	-2.11000E-001	3.75706E-004	6	..........a	-327.68
	84	8.5	-1.57046E-001	-2.06937E-001	-1.81991E-001	1.25222E-008	-4.40784E-008	5.66005E-008	-2.07000E-001	3.79539E-004	6	..........a	-327.68
	86	8.7	-1.53096E-001	-2.02931E-001	-1.78013E-001	1.36523E-008	-4.21028E-008	5.57551E-008	-2.03000E-001	3.74373E-004	6	..........a	-327.68
	88	8.9	-1.49067E-001	-1.98968E-001	-1.74018E-001	1.45448E-008	-4.01385E-008	5.46833E-008	-1.99000E-001	3.74039E-004	6	..........a	-327.68
	90	9.1	-1.45040E-001	-1.94950E-001	-1.69995E-001	1.57313E-008	-3.85247E-008	5.42559E-008	-1.95000E-001	3.68206E-004	6	..........a	-327.68
	92	9.3	-1.41026E-001	-1.90972E-001	-1.65999E-001	1.68631E-008	-3.71551E-008	5.40182E-008	-1.91000E-001	3.64206E-004	6	..........a	-327.68
	94	9.5	-1.37092E-001	-1.86878E-001	-1.61985E-001	1.77502E-008	-3.54296E-008	5.31798E-008	-1.87000E-001	3.72706E-004	6	..........a	-327.68
	96	9.7	-1.33039E-001	-1.82972E-001	-1.58005E-001	1.87633E-008	-3.40287E-008	5.27920E-008	-1.83000E-001	3.58873E-004	6	..........a	-327.68
	98	9.9	-1.29072E-001	-1.78919E-001	-1.53995E-001	1.96061E-008	-3.27776E-008	5.23837E-008	-1.79000E-001	3.74373E-004	6	..........a	-327.68
	100	10.1	-1.25071E-001	-1.74996E-001	-1.50034E-001	2.04522E-008	-3.15544E-008	5.20066E-008	-1.75000E-001	3.71206E-004	6	..........a	-327.68