File: Sample Data/Concentration Curve Data/C-COM1/SWV_500Hz STD1 aptmch 081020.DTA
EXPLAIN
TAG	SQUARE_WAVE
TITLE	LABEL	Square Wave Voltammetry	Test Identifier
DATE	LABEL	8/10/2020	Date
TIME	LABEL	12:51:45	Time
NOTES	NOTES	1	Notes...

PSTAT	PSTAT	REF600-24079	Potentiostat
VINIT	QUANT	-3.50000E-001	Initial E (V)
VFINAL	QUANT	-1.50000E-001	Final E (V)
STEPSIZE	QUANT	2.00000E+000	Step Size (mV)
TIMERRES	QUANT	3.33340E-005	&Timer Resolution
FREQUENCY	QUANT	5.00000E+002	Frequency (Hz)
PULSESIZE	QUANT	2.50000E+001	Pulse Size E (mV)
PULSEON	QUANT	2.00000E-003	Pulse &Time (s)
NOISEREJECT	TOGGLE	F	Noise Rejection
AREA	QUANT	2.00000E-002	Sample Area (cm^2)
IMODE	SELECTOR	1	I/E Range Mode
IRANGE	QUANT	1.00000E-002	Max Current (mA)
EQDELAY	IQUANT	10	Equil. Time (s)
IRCOMP	SELECTOR	0	IRComp
PFCOR	QUANT	5.00000E+001	PF Corr. (ohm)
CYCLES	IQUANT	101	C&ycles (#)
ELECTRODETYPE	SELECTOR	0	Electrode Type
STRIPPING	TOGGLE	F	Used for Stripping
POLARITY	TOGGLE	F	Signal Polarity
LINEFREQ	IQUANT	60	Line Frequency (Hz)
INTPERIOD	QUANT	3.3334E-005	Integration Period (s)
SEQUENCER	TOGGLE	TRUE	Run as Sequence
PSTATMODEL	IQUANT	4	Pstat Model
PSTATSECTION	LABEL	REF600-24079	Pstat Section
PSTATSERIALNO	LABEL	24079	Pstat Serial Number
CTRLMODE	IQUANT	1	Control Mode
ELECTROMETER	IQUANT	0	RE=0 or CS=1
IESTAB	IQUANT	2	I/E Stability
CASPEED	IQUANT	6	Control Amp Speed
CONVENTION	IQUANT	1	Current Convention
ICHRANGE	IQUANT	2	Ich Range
ICHRANGEMODE	TOGGLE	F	Ich Auto Range
ICHOFFSETENABLE	TOGGLE	F	Ich Offset Enable
ICHOFFSET	QUANT	0	Ich Offset (V)
ICHFILTER	IQUANT	1	Ich Filter
VCHRANGE	IQUANT	2	Vch Range
VCHRANGEMODE	TOGGLE	F	Vch Auto Range
VCHOFFSETENABLE	TOGGLE	F	Vch Offset Enable
VCHOFFSET	QUANT	0	Vch Offset (V)
VCHFILTER	IQUANT	1	Vch Filter
ACHRANGE	IQUANT	2	Ach Range
ACHOFFSETENABLE	TOGGLE	F	Ach Offset Enable
ACHOFFSET	QUANT	0	Ach Offset (V)
ACHFILTER	IQUANT	1	Ach Filter
IERANGELOWERLIMIT	IQUANT	1	I/E Range Lower Limit
IERANGEMODE	TOGGLE	F	I/E AutoRange
IERANGE	IQUANT	7	I/E Range
POSFEEDENABLE	TOGGLE	F	Positive Feedback IR Comp
POSFEEDRESISTANCE	QUANT	0	Positive Feedback Resistance (ohm)
ACHSELECT	IQUANT	0	Ach Select
SENSECABLEID	IQUANT	13	Sense Cable ID
PWRCABLEID	IQUANT	13	Power Cable ID
DCCALDATE	LABEL	6/30/2020	DC Calibration Date
ACCALDATE	LABEL	6/30/2020	AC Calibration Date
THERMOSELECT	IQUANT	1	Thermo Select
FRAMEWORKVERSION	LABEL	7.8.2	Framework Version
INSTRUMENTVERSION	LABEL	4.40	Instrument Version
CURVE	TABLE	101
	Pt	T	Vfwd	Vrev	Vstep	Ifwd	Irev	Idif	Sig	Ach	IERange	Over	Temp
	#	s	V	V	V	A	A	A	V	V	#	bits	deg C
	0	0.002	-3.26324E-001	-3.65474E-001	-3.45899E-001	7.22965E-008	-1.11282E-005	1.12005E-005	-3.75000E-001	2.82706E-004	7	..........a	-327.68
	2	0.006	-3.35874E-001	-3.58508E-001	-3.47191E-001	7.98271E-006	-7.59125E-006	1.55740E-005	-3.71000E-001	3.16039E-004	7	..........a	-327.68
	4	0.01	-3.32191E-001	-3.54566E-001	-3.43378E-001	7.95754E-006	-7.48973E-006	1.54473E-005	-3.67000E-001	2.57706E-004	7	..........a	-327.68
	6	0.014	-3.28224E-001	-3.50558E-001	-3.39391E-001	7.97154E-006	-7.47207E-006	1.54436E-005	-3.63000E-001	3.24373E-004	7	..........a	-327.68
	8	0.018	-3.24224E-001	-3.46507E-001	-3.35366E-001	7.98371E-006	-7.46173E-006	1.54454E-005	-3.59000E-001	3.24373E-004	7	..........a	-327.68
	10	0.022	-3.20241E-001	-3.42541E-001	-3.31391E-001	7.98821E-006	-7.45773E-006	1.54459E-005	-3.55000E-001	3.07706E-004	7	..........a	-327.68
	12	0.026	-3.16157E-001	-3.38474E-001	-3.27316E-001	7.99521E-006	-7.44873E-006	1.54439E-005	-3.51000E-001	3.16039E-004	7	..........a	-327.68
	14	0.03	-3.12141E-001	-3.34482E-001	-3.23312E-001	8.00038E-006	-7.44006E-006	1.54404E-005	-3.47000E-001	3.07706E-004	7	..........a	-327.68
	16	0.034	-3.08241E-001	-3.30557E-001	-3.19399E-001	8.00621E-006	-7.43523E-006	1.54414E-005	-3.43000E-001	3.24373E-004	7	..........a	-327.68
	18	0.038	-3.04241E-001	-3.26458E-001	-3.15349E-001	8.00354E-006	-7.43323E-006	1.54368E-005	-3.39000E-001	2.66039E-004	7	..........a	-327.68
	20	0.042	-3.00224E-001	-3.22558E-001	-3.11391E-001	8.00721E-006	-7.42873E-006	1.54359E-005	-3.35000E-001	2.91039E-004	7	..........a	-327.68
	22	0.046	-2.96191E-001	-3.18532E-001	-3.07362E-001	8.01371E-006	-7.42222E-006	1.54359E-005	-3.31000E-001	2.74373E-004	7	..........a	-327.68
	24	0.05	-2.92141E-001	-3.14524E-001	-3.03333E-001	8.01788E-006	-7.41989E-006	1.54378E-005	-3.27000E-001	3.24373E-004	7	..........a	-327.68
	26	0.054	-2.88191E-001	-3.10533E-001	-2.99362E-001	8.02288E-006	-7.41639E-006	1.54393E-005	-3.23000E-001	2.91039E-004	7	..........a	-327.68
	28	0.058	-2.84207E-001	-3.06499E-001	-2.95353E-001	8.02055E-006	-7.41306E-006	1.54336E-005	-3.19000E-001	3.41039E-004	7	..........a	-327.68
	30	0.062	-2.80208E-001	-3.02574E-001	-2.91391E-001	8.02055E-006	-7.40506E-006	1.54256E-005	-3.15000E-001	2.91039E-004	7	..........a	-327.68
	32	0.066	-2.76224E-001	-2.98508E-001	-2.87366E-001	8.02571E-006	-7.40189E-006	1.54276E-005	-3.11000E-001	3.07706E-004	7	..........a	-327.68
	34	0.07	-2.72157E-001	-2.94591E-001	-2.83374E-001	8.02571E-006	-7.39956E-006	1.54253E-005	-3.07000E-001	2.66039E-004	7	..........a	-327.68
	36	0.074	-2.68174E-001	-2.90507E-001	-2.79341E-001	8.02888E-006	-7.39339E-006	1.54223E-005	-3.03000E-001	2.99373E-004	7	..........a	-327.68
	38	0.078	-2.64174E-001	-2.86483E-001	-2.75328E-001	8.02971E-006	-7.39289E-006	1.54226E-005	-2.99000E-001	3.49373E-004	7	..........a	-327.68
	40	0.082	-2.60208E-001	-2.82541E-001	-2.71374E-001	8.03588E-006	-7.38555E-006	1.54214E-005	-2.95000E-001	3.16039E-004	7	..........a	-327.68
	42	0.086	-2.56258E-001	-2.78549E-001	-2.67403E-001	8.04122E-006	-7.38389E-006	1.54251E-005	-2.91000E-001	3.41039E-004	7	..........a	-327.68
	44	0.09	-2.52224E-001	-2.74583E-001	-2.63403E-001	8.04188E-006	-7.37755E-006	1.54194E-005	-2.87000E-001	3.07706E-004	7	..........a	-327.68
	46	0.094	-2.48208E-001	-2.70533E-001	-2.59370E-001	8.03771E-006	-7.37289E-006	1.54106E-005	-2.83000E-001	3.07706E-004	7	..........a	-327.68
	48	0.098	-2.44183E-001	-2.66457E-001	-2.55320E-001	8.04272E-006	-7.36738E-006	1.54101E-005	-2.79000E-001	2.91039E-004	7	..........a	-327.68
	50	0.102	-2.40174E-001	-2.62558E-001	-2.51366E-001	8.04805E-006	-7.36355E-006	1.54116E-005	-2.75000E-001	3.57706E-004	7	..........a	-327.68
	52	0.106	-2.36074E-001	-2.58474E-001	-2.47274E-001	8.04805E-006	-7.36655E-006	1.54146E-005	-2.71000E-001	2.49373E-004	7	..........a	-327.68
	54	0.11	-2.32241E-001	-2.54624E-001	-2.43433E-001	8.04505E-006	-7.35955E-006	1.54046E-005	-2.67000E-001	2.99373E-004	7	..........a	-327.68
	56	0.114	-2.28191E-001	-2.50599E-001	-2.39395E-001	8.04922E-006	-7.35955E-006	1.54088E-005	-2.63000E-001	2.57706E-004	7	..........a	-327.68
	58	0.118	-2.24208E-001	-2.46633E-001	-2.35420E-001	8.05405E-006	-7.35638E-006	1.54104E-005	-2.59000E-001	3.74373E-004	7	..........a	-327.68
	60	0.122	-2.20174E-001	-2.42574E-001	-2.31374E-001	8.05272E-006	-7.35855E-006	1.54113E-005	-2.55000E-001	2.57706E-004	7	..........a	-327.68
	62	0.126	-2.16091E-001	-2.38491E-001	-2.27291E-001	8.04922E-006	-7.35672E-006	1.54059E-005	-2.51000E-001	3.41039E-004	7	..........a	-327.68
	64	0.13	-2.12133E-001	-2.34466E-001	-2.23299E-001	8.05222E-006	-7.35355E-006	1.54058E-005	-2.47000E-001	3.49373E-004	7	..........a	-327.68
	66	0.134	-2.08141E-001	-2.30599E-001	-2.19370E-001	8.05105E-006	-7.35338E-006	1.54044E-005	-2.43000E-001	3.07706E-004	7	..........a	-327.68
	68	0.138	-2.04208E-001	-2.26608E-001	-2.15408E-001	8.05055E-006	-7.35355E-006	1.54041E-005	-2.39000E-001	3.41039E-004	7	..........a	-327.68
	70	0.142	-2.00091E-001	-2.22558E-001	-2.11324E-001	8.05005E-006	-7.35455E-006	1.54046E-005	-2.35000E-001	3.07706E-004	7	..........a	-327.68
	72	0.146	-1.96224E-001	-2.18591E-001	-2.07408E-001	8.04755E-006	-7.35138E-006	1.53989E-005	-2.31000E-001	2.74373E-004	7	..........a	-327.68
	74	0.15	-1.92224E-001	-2.14508E-001	-2.03366E-001	8.04922E-006	-7.35405E-006	1.54033E-005	-2.27000E-001	2.74373E-004	7	..........a	-327.68
	76	0.154	-1.88124E-001	-2.10508E-001	-1.99316E-001	8.05255E-006	-7.35438E-006	1.54069E-005	-2.23000E-001	3.41039E-004	7	..........a	-327.68
	78	0.158	-1.84174E-001	-2.06524E-001	-1.95349E-001	8.04905E-006	-7.36138E-006	1.54104E-005	-2.19000E-001	2.91039E-004	7	..........a	-327.68
	80	0.162	-1.80141E-001	-2.02633E-001	-1.91387E-001	8.05255E-006	-7.35438E-006	1.54069E-005	-2.15000E-001	3.24373E-004	7	..........a	-327.68
	82	0.166	-1.76158E-001	-1.98583E-001	-1.87370E-001	8.05255E-006	-7.35438E-006	1.54069E-005	-2.11000E-001	2.99373E-004	7	..........a	-327.68
	84	0.17	-1.72183E-001	-1.94649E-001	-1.83416E-001	8.04722E-006	-7.35688E-006	1.54041E-005	-2.07000E-001	3.32706E-004	7	..........a	-327.68
	86	0.174	-1.68141E-001	-1.90616E-001	-1.79378E-001	8.05422E-006	-7.35605E-006	1.54103E-005	-2.03000E-001	3.07706E-004	7	..........a	-327.68
	88	0.178	-1.64108E-001	-1.86549E-001	-1.75328E-001	8.05022E-006	-7.35572E-006	1.54059E-005	-1.99000E-001	3.57706E-004	7	..........a	-327.68
	90	0.182	-1.60091E-001	-1.82616E-001	-1.71353E-001	8.05138E-006	-7.35655E-006	1.54079E-005	-1.95000E-001	3.16039E-004	7	..........a	-327.68
	92	0.186	-1.56124E-001	-1.78591E-001	-1.67358E-001	8.05172E-006	-7.35972E-006	1.54114E-005	-1.91000E-001	3.07706E-004	7	..........a	-327.68
	94	0.19	-1.52158E-001	-1.74591E-001	-1.63374E-001	8.05438E-006	-7.35572E-006	1.54101E-005	-1.87000E-001	3.24373E-004	7	..........a	-327.68
	96	0.194	-1.48141E-001	-1.70591E-001	-1.59366E-001	8.05538E-006	-7.35805E-006	1.54134E-005	-1.83000E-001	3.16039E-004	7	..........a	-327.68
	98	0.198	-1.44149E-001	-1.66549E-001	-1.55349E-001	8.05588E-006	-7.35522E-006	1.54111E-005	-1.79000E-001	2.91039E-004	7	..........a	-327.68
	100	0.202	-1.40099E-001	-1.62458E-001	-1.51278E-001	8.05838E-006	-7.35522E-006	1.54136E-005	-1.75000E-001	3.32706E-004	7	..........a	-327.68