File: C-COM1/SWV_10Hz STD1 50  fgml 081020_#3.DTA
EXPLAIN
TAG	SQUARE_WAVE
TITLE	LABEL	Square Wave Voltammetry	Test Identifier
DATE	LABEL	8/10/2020	Date
TIME	LABEL	18:59:29	Time
NOTES	NOTES	1	Notes...
	 STD1 50  fg/mL 08102
PSTAT	PSTAT	REF600-24079	Potentiostat
VINIT	QUANT	-3.50000E-001	Initial E (V)
VFINAL	QUANT	-1.50000E-001	Final E (V)
STEPSIZE	QUANT	2.00000E+000	Step Size (mV)
TIMERRES	QUANT	3.33340E-005	&Timer Resolution
FREQUENCY	QUANT	1.00000E+001	Frequency (Hz)
PULSESIZE	QUANT	2.50000E+001	Pulse Size E (mV)
PULSEON	QUANT	1.00000E-001	Pulse &Time (s)
NOISEREJECT	TOGGLE	F	Noise Rejection
AREA	QUANT	2.00000E-002	Sample Area (cm^2)
IMODE	SELECTOR	1	I/E Range Mode
IRANGE	QUANT	1.00000E-003	Max Current (mA)
EQDELAY	IQUANT	10	Equil. Time (s)
IRCOMP	SELECTOR	0	IRComp
PFCOR	QUANT	5.00000E+001	PF Corr. (ohm)
CYCLES	IQUANT	101	C&ycles (#)
ELECTRODETYPE	SELECTOR	0	Electrode Type
STRIPPING	TOGGLE	F	Used for Stripping
POLARITY	TOGGLE	F	Signal Polarity
LINEFREQ	IQUANT	60	Line Frequency (Hz)
INTPERIOD	QUANT	3.3334E-005	Integration Period (s)
SEQUENCER	TOGGLE	TRUE	Run as Sequence
PSTATMODEL	IQUANT	4	Pstat Model
PSTATSECTION	LABEL	REF600-24079	Pstat Section
PSTATSERIALNO	LABEL	24079	Pstat Serial Number
CTRLMODE	IQUANT	1	Control Mode
ELECTROMETER	IQUANT	0	RE=0 or CS=1
IESTAB	IQUANT	2	I/E Stability
CASPEED	IQUANT	6	Control Amp Speed
CONVENTION	IQUANT	1	Current Convention
ICHRANGE	IQUANT	2	Ich Range
ICHRANGEMODE	TOGGLE	F	Ich Auto Range
ICHOFFSETENABLE	TOGGLE	F	Ich Offset Enable
ICHOFFSET	QUANT	0	Ich Offset (V)
ICHFILTER	IQUANT	2	Ich Filter
VCHRANGE	IQUANT	2	Vch Range
VCHRANGEMODE	TOGGLE	F	Vch Auto Range
VCHOFFSETENABLE	TOGGLE	F	Vch Offset Enable
VCHOFFSET	QUANT	0	Vch Offset (V)
VCHFILTER	IQUANT	2	Vch Filter
ACHRANGE	IQUANT	2	Ach Range
ACHOFFSETENABLE	TOGGLE	F	Ach Offset Enable
ACHOFFSET	QUANT	0	Ach Offset (V)
ACHFILTER	IQUANT	1	Ach Filter
IERANGELOWERLIMIT	IQUANT	1	I/E Range Lower Limit
IERANGEMODE	TOGGLE	F	I/E AutoRange
IERANGE	IQUANT	6	I/E Range
POSFEEDENABLE	TOGGLE	F	Positive Feedback IR Comp
POSFEEDRESISTANCE	QUANT	0	Positive Feedback Resistance (ohm)
ACHSELECT	IQUANT	0	Ach Select
SENSECABLEID	IQUANT	13	Sense Cable ID
PWRCABLEID	IQUANT	13	Power Cable ID
DCCALDATE	LABEL	6/30/2020	DC Calibration Date
ACCALDATE	LABEL	6/30/2020	AC Calibration Date
THERMOSELECT	IQUANT	1	Thermo Select
FRAMEWORKVERSION	LABEL	7.8.2	Framework Version
INSTRUMENTVERSION	LABEL	4.40	Instrument Version
CURVE	TABLE	101
	Pt	T	Vfwd	Vrev	Vstep	Ifwd	Irev	Idif	Sig	Ach	IERange	Over	Temp
	#	s	V	V	V	A	A	A	V	V	#	bits	deg C
	0	0.1	-3.25070E-001	-3.74989E-001	-3.50030E-001	-1.53093E-007	-3.05874E-007	1.52781E-007	-3.75000E-001	4.33539E-004	6	..........a	-327.68
	2	0.3	-3.21038E-001	-3.70961E-001	-3.45999E-001	-1.33040E-007	-2.86580E-007	1.53540E-007	-3.71000E-001	4.30206E-004	6	..........a	-327.68
	4	0.5	-3.17110E-001	-3.66987E-001	-3.42048E-001	-1.24462E-007	-2.72578E-007	1.48116E-007	-3.67000E-001	4.36706E-004	6	..........a	-327.68
	6	0.7	-3.13098E-001	-3.62939E-001	-3.38018E-001	-1.16759E-007	-2.59716E-007	1.42957E-007	-3.63000E-001	4.32373E-004	6	..........a	-327.68
	8	0.9	-3.09073E-001	-3.58985E-001	-3.34029E-001	-1.09932E-007	-2.47413E-007	1.37481E-007	-3.59000E-001	4.37206E-004	6	..........a	-327.68
	10	1.1	-3.05108E-001	-3.54946E-001	-3.30027E-001	-1.03043E-007	-2.35868E-007	1.32825E-007	-3.55000E-001	4.27873E-004	6	..........a	-327.68
	12	1.3	-3.01096E-001	-3.50985E-001	-3.26041E-001	-9.68811E-008	-2.25005E-007	1.28124E-007	-3.51000E-001	4.33039E-004	6	..........a	-327.68
	14	1.5	-2.97078E-001	-3.46976E-001	-3.22027E-001	-9.06383E-008	-2.14376E-007	1.23738E-007	-3.47000E-001	4.31706E-004	6	..........a	-327.68
	16	1.7	-2.93030E-001	-3.43000E-001	-3.18015E-001	-8.49389E-008	-2.04434E-007	1.19495E-007	-3.43000E-001	4.31039E-004	6	..........a	-327.68
	18	1.9	-2.89095E-001	-3.38933E-001	-3.14014E-001	-7.90961E-008	-1.95077E-007	1.15981E-007	-3.39000E-001	4.28873E-004	6	..........a	-327.68
	20	2.1	-2.85081E-001	-3.35022E-001	-3.10051E-001	-7.37905E-008	-1.86160E-007	1.12370E-007	-3.35000E-001	4.26873E-004	6	..........a	-327.68
	22	2.3	-2.81116E-001	-3.30942E-001	-3.06029E-001	-6.84481E-008	-1.77578E-007	1.09130E-007	-3.31000E-001	4.28373E-004	6	..........a	-327.68
	24	2.5	-2.77048E-001	-3.26990E-001	-3.02019E-001	-6.38845E-008	-1.69425E-007	1.05541E-007	-3.27000E-001	4.25373E-004	6	..........a	-327.68
	26	2.7	-2.73031E-001	-3.22968E-001	-2.97999E-001	-5.86659E-008	-1.61825E-007	1.03159E-007	-3.23000E-001	4.29206E-004	6	..........a	-327.68
	28	2.9	-2.69014E-001	-3.19011E-001	-2.94012E-001	-5.44010E-008	-1.54076E-007	9.96753E-008	-3.19000E-001	4.25206E-004	6	..........a	-327.68
	30	3.1	-2.65125E-001	-3.14975E-001	-2.90050E-001	-4.98958E-008	-1.47272E-007	9.73767E-008	-3.15000E-001	4.24039E-004	6	..........a	-327.68
	32	3.3	-2.61098E-001	-3.10992E-001	-2.86045E-001	-4.58893E-008	-1.40499E-007	9.46097E-008	-3.11000E-001	4.34206E-004	6	..........a	-327.68
	34	3.5	-2.57085E-001	-3.06946E-001	-2.82016E-001	-4.18884E-008	-1.34052E-007	9.21637E-008	-3.07000E-001	4.25039E-004	6	..........a	-327.68
	36	3.7	-2.53099E-001	-3.03021E-001	-2.78060E-001	-3.81263E-008	-1.27847E-007	8.97207E-008	-3.03000E-001	4.30039E-004	6	..........a	-327.68
	38	3.9	-2.49067E-001	-2.98998E-001	-2.74032E-001	-3.46942E-008	-1.22210E-007	8.75158E-008	-2.99000E-001	4.23706E-004	6	..........a	-327.68
	40	4.1	-2.45034E-001	-2.94970E-001	-2.70002E-001	-3.10934E-008	-1.16824E-007	8.57302E-008	-2.95000E-001	4.36206E-004	6	..........a	-327.68
	42	4.3	-2.41121E-001	-2.90934E-001	-2.66027E-001	-2.77313E-008	-1.11423E-007	8.36913E-008	-2.91000E-001	4.24373E-004	6	..........a	-327.68
	44	4.5	-2.37071E-001	-2.86952E-001	-2.62011E-001	-2.46332E-008	-1.06546E-007	8.19131E-008	-2.87000E-001	4.27373E-004	6	..........a	-327.68
	46	4.7	-2.33091E-001	-2.82949E-001	-2.58020E-001	-2.18149E-008	-1.01751E-007	7.99365E-008	-2.83000E-001	4.32039E-004	6	..........a	-327.68
	48	4.9	-2.29108E-001	-2.79019E-001	-2.54063E-001	-1.92689E-008	-9.72161E-008	7.79472E-008	-2.79000E-001	4.30539E-004	6	..........a	-327.68
	50	5.1	-2.25088E-001	-2.74973E-001	-2.50031E-001	-1.69149E-008	-9.29042E-008	7.59893E-008	-2.75000E-001	4.30706E-004	6	..........a	-327.68
	52	5.3	-2.21053E-001	-2.70996E-001	-2.46024E-001	-1.43166E-008	-8.87524E-008	7.44358E-008	-2.71000E-001	4.32373E-004	6	..........a	-327.68
	54	5.5	-2.17127E-001	-2.66909E-001	-2.42018E-001	-1.22220E-008	-8.49376E-008	7.27156E-008	-2.67000E-001	4.29206E-004	6	..........a	-327.68
	56	5.7	-2.13073E-001	-2.62934E-001	-2.38004E-001	-9.92368E-009	-8.08747E-008	7.09510E-008	-2.63000E-001	4.31206E-004	6	..........a	-327.68
	58	5.9	-2.09090E-001	-2.58944E-001	-2.34017E-001	-7.93276E-009	-7.71296E-008	6.91968E-008	-2.59000E-001	4.39206E-004	6	..........a	-327.68
	60	6.1	-2.05078E-001	-2.55003E-001	-2.30040E-001	-6.14586E-009	-7.37418E-008	6.75959E-008	-2.55000E-001	4.29539E-004	6	..........a	-327.68
	62	6.3	-2.01103E-001	-2.50963E-001	-2.26033E-001	-4.26696E-009	-7.03874E-008	6.61204E-008	-2.51000E-001	4.40039E-004	6	..........a	-327.68
	64	6.5	-1.97077E-001	-2.46944E-001	-2.22011E-001	-2.11869E-009	-6.70606E-008	6.49419E-008	-2.47000E-001	4.31373E-004	6	..........a	-327.68
	66	6.7	-1.93051E-001	-2.42941E-001	-2.17996E-001	-5.47486E-010	-6.42616E-008	6.37141E-008	-2.43000E-001	4.34873E-004	6	..........a	-327.68
	68	6.9	-1.89110E-001	-2.38979E-001	-2.14045E-001	8.04352E-010	-6.14189E-008	6.22233E-008	-2.39000E-001	4.38539E-004	6	..........a	-327.68
	70	7.1	-1.85112E-001	-2.34937E-001	-2.10024E-001	2.33355E-009	-5.88552E-008	6.11888E-008	-2.35000E-001	4.36873E-004	6	..........a	-327.68
	72	7.3	-1.81099E-001	-2.30958E-001	-2.06028E-001	3.77740E-009	-5.62082E-008	5.99856E-008	-2.31000E-001	4.23706E-004	6	..........a	-327.68
	74	7.5	-1.77114E-001	-2.26952E-001	-2.02033E-001	5.08156E-009	-5.37129E-008	5.87945E-008	-2.27000E-001	4.35539E-004	6	..........a	-327.68
	76	7.7	-1.73108E-001	-2.22960E-001	-1.98034E-001	6.36673E-009	-5.13706E-008	5.77373E-008	-2.23000E-001	4.32373E-004	6	..........a	-327.68
	78	7.9	-1.69088E-001	-2.18990E-001	-1.94039E-001	7.44753E-009	-4.94647E-008	5.69122E-008	-2.19000E-001	4.28706E-004	6	..........a	-327.68
	80	8.1	-1.64976E-001	-2.14962E-001	-1.89969E-001	8.74303E-009	-4.75605E-008	5.63035E-008	-2.15000E-001	4.34873E-004	6	..........a	-327.68
	82	8.3	-1.61117E-001	-2.10962E-001	-1.86039E-001	9.85117E-009	-4.54235E-008	5.52747E-008	-2.11000E-001	4.32206E-004	6	..........a	-327.68
	84	8.5	-1.57095E-001	-2.06985E-001	-1.82040E-001	1.08956E-008	-4.36020E-008	5.44976E-008	-2.07000E-001	4.32873E-004	6	..........a	-327.68
	86	8.7	-1.53119E-001	-2.02952E-001	-1.78035E-001	1.16941E-008	-4.19714E-008	5.36655E-008	-2.03000E-001	4.27873E-004	6	..........a	-327.68
	88	8.9	-1.49104E-001	-1.98999E-001	-1.74052E-001	1.31069E-008	-4.05259E-008	5.36328E-008	-1.99000E-001	4.19706E-004	6	..........a	-327.68
	90	9.1	-1.45088E-001	-1.94960E-001	-1.70024E-001	1.39427E-008	-3.88280E-008	5.27707E-008	-1.95000E-001	4.28873E-004	6	..........a	-327.68
	92	9.3	-1.41083E-001	-1.91090E-001	-1.66086E-001	1.48555E-008	-3.75115E-008	5.23670E-008	-1.91000E-001	4.24539E-004	6	..........a	-327.68
	94	9.5	-1.37119E-001	-1.86932E-001	-1.62026E-001	1.59313E-008	-3.61650E-008	5.20963E-008	-1.87000E-001	4.28873E-004	6	..........a	-327.68
	96	9.7	-1.33085E-001	-1.83012E-001	-1.58049E-001	1.64677E-008	-3.48572E-008	5.13249E-008	-1.83000E-001	4.31706E-004	6	..........a	-327.68
	98	9.9	-1.29087E-001	-1.78945E-001	-1.54016E-001	1.72841E-008	-3.36474E-008	5.09315E-008	-1.79000E-001	4.28873E-004	6	..........a	-327.68
	100	10.1	-1.25103E-001	-1.75046E-001	-1.50074E-001	1.81276E-008	-3.26956E-008	5.08231E-008	-1.75000E-001	4.28373E-004	6	..........a	-327.68