File: C-COM1/SWV_10Hz STD1 100  fgml 081020_#7.DTA
EXPLAIN
TAG	SQUARE_WAVE
TITLE	LABEL	Square Wave Voltammetry	Test Identifier
DATE	LABEL	8/10/2020	Date
TIME	LABEL	20:04:55	Time
NOTES	NOTES	1	Notes...
	 STD1 100  fg/mL 08102
PSTAT	PSTAT	REF600-24079	Potentiostat
VINIT	QUANT	-3.50000E-001	Initial E (V)
VFINAL	QUANT	-1.50000E-001	Final E (V)
STEPSIZE	QUANT	2.00000E+000	Step Size (mV)
TIMERRES	QUANT	3.33340E-005	&Timer Resolution
FREQUENCY	QUANT	1.00000E+001	Frequency (Hz)
PULSESIZE	QUANT	2.50000E+001	Pulse Size E (mV)
PULSEON	QUANT	1.00000E-001	Pulse &Time (s)
NOISEREJECT	TOGGLE	F	Noise Rejection
AREA	QUANT	2.00000E-002	Sample Area (cm^2)
IMODE	SELECTOR	1	I/E Range Mode
IRANGE	QUANT	1.00000E-003	Max Current (mA)
EQDELAY	IQUANT	10	Equil. Time (s)
IRCOMP	SELECTOR	0	IRComp
PFCOR	QUANT	5.00000E+001	PF Corr. (ohm)
CYCLES	IQUANT	101	C&ycles (#)
ELECTRODETYPE	SELECTOR	0	Electrode Type
STRIPPING	TOGGLE	F	Used for Stripping
POLARITY	TOGGLE	F	Signal Polarity
LINEFREQ	IQUANT	60	Line Frequency (Hz)
INTPERIOD	QUANT	3.3334E-005	Integration Period (s)
SEQUENCER	TOGGLE	TRUE	Run as Sequence
PSTATMODEL	IQUANT	4	Pstat Model
PSTATSECTION	LABEL	REF600-24079	Pstat Section
PSTATSERIALNO	LABEL	24079	Pstat Serial Number
CTRLMODE	IQUANT	1	Control Mode
ELECTROMETER	IQUANT	0	RE=0 or CS=1
IESTAB	IQUANT	2	I/E Stability
CASPEED	IQUANT	6	Control Amp Speed
CONVENTION	IQUANT	1	Current Convention
ICHRANGE	IQUANT	2	Ich Range
ICHRANGEMODE	TOGGLE	F	Ich Auto Range
ICHOFFSETENABLE	TOGGLE	F	Ich Offset Enable
ICHOFFSET	QUANT	0	Ich Offset (V)
ICHFILTER	IQUANT	2	Ich Filter
VCHRANGE	IQUANT	2	Vch Range
VCHRANGEMODE	TOGGLE	F	Vch Auto Range
VCHOFFSETENABLE	TOGGLE	F	Vch Offset Enable
VCHOFFSET	QUANT	0	Vch Offset (V)
VCHFILTER	IQUANT	2	Vch Filter
ACHRANGE	IQUANT	2	Ach Range
ACHOFFSETENABLE	TOGGLE	F	Ach Offset Enable
ACHOFFSET	QUANT	0	Ach Offset (V)
ACHFILTER	IQUANT	1	Ach Filter
IERANGELOWERLIMIT	IQUANT	1	I/E Range Lower Limit
IERANGEMODE	TOGGLE	F	I/E AutoRange
IERANGE	IQUANT	6	I/E Range
POSFEEDENABLE	TOGGLE	F	Positive Feedback IR Comp
POSFEEDRESISTANCE	QUANT	0	Positive Feedback Resistance (ohm)
ACHSELECT	IQUANT	0	Ach Select
SENSECABLEID	IQUANT	13	Sense Cable ID
PWRCABLEID	IQUANT	13	Power Cable ID
DCCALDATE	LABEL	6/30/2020	DC Calibration Date
ACCALDATE	LABEL	6/30/2020	AC Calibration Date
THERMOSELECT	IQUANT	1	Thermo Select
FRAMEWORKVERSION	LABEL	7.8.2	Framework Version
INSTRUMENTVERSION	LABEL	4.40	Instrument Version
CURVE	TABLE	101
	Pt	T	Vfwd	Vrev	Vstep	Ifwd	Irev	Idif	Sig	Ach	IERange	Over	Temp
	#	s	V	V	V	A	A	A	V	V	#	bits	deg C
	0	0.1	-3.24992E-001	-3.74940E-001	-3.49966E-001	-1.63752E-007	-3.22789E-007	1.59038E-007	-3.75000E-001	4.23539E-004	6	..........a	-327.68
	2	0.3	-3.20991E-001	-3.70878E-001	-3.45934E-001	-1.42795E-007	-3.03671E-007	1.60876E-007	-3.71000E-001	4.14373E-004	6	..........a	-327.68
	4	0.5	-3.17034E-001	-3.66989E-001	-3.42011E-001	-1.33985E-007	-2.88898E-007	1.54912E-007	-3.67000E-001	3.94539E-004	6	..........a	-327.68
	6	0.7	-3.13048E-001	-3.62880E-001	-3.37964E-001	-1.26205E-007	-2.75762E-007	1.49557E-007	-3.63000E-001	4.25206E-004	6	..........a	-327.68
	8	0.9	-3.08995E-001	-3.58907E-001	-3.33951E-001	-1.18739E-007	-2.63260E-007	1.44521E-007	-3.59000E-001	4.19039E-004	6	..........a	-327.68
	10	1.1	-3.05058E-001	-3.54927E-001	-3.29992E-001	-1.11601E-007	-2.51405E-007	1.39804E-007	-3.55000E-001	4.23706E-004	6	..........a	-327.68
	12	1.3	-3.01038E-001	-3.50947E-001	-3.25992E-001	-1.05133E-007	-2.40134E-007	1.35000E-007	-3.51000E-001	4.10373E-004	6	..........a	-327.68
	14	1.5	-2.97034E-001	-3.46936E-001	-3.21985E-001	-9.85996E-008	-2.29067E-007	1.30468E-007	-3.47000E-001	4.12539E-004	6	..........a	-327.68
	16	1.7	-2.92954E-001	-3.42894E-001	-3.17924E-001	-9.22888E-008	-2.19073E-007	1.26784E-007	-3.43000E-001	4.18706E-004	6	..........a	-327.68
	18	1.9	-2.89083E-001	-3.38875E-001	-3.13979E-001	-8.63031E-008	-2.08892E-007	1.22589E-007	-3.39000E-001	4.07039E-004	6	..........a	-327.68
	20	2.1	-2.85036E-001	-3.34945E-001	-3.09990E-001	-8.04440E-008	-1.99674E-007	1.19230E-007	-3.35000E-001	4.12373E-004	6	..........a	-327.68
	22	2.3	-2.81099E-001	-3.30911E-001	-3.06005E-001	-7.49723E-008	-1.90686E-007	1.15714E-007	-3.31000E-001	4.12039E-004	6	..........a	-327.68
	24	2.5	-2.77024E-001	-3.26942E-001	-3.01983E-001	-6.97733E-008	-1.81774E-007	1.12001E-007	-3.27000E-001	4.17539E-004	6	..........a	-327.68
	26	2.7	-2.72987E-001	-3.22961E-001	-2.97974E-001	-6.43539E-008	-1.73373E-007	1.09020E-007	-3.23000E-001	4.15039E-004	6	..........a	-327.68
	28	2.9	-2.68954E-001	-3.18892E-001	-2.93923E-001	-5.99884E-008	-1.65569E-007	1.05580E-007	-3.19000E-001	4.24206E-004	6	..........a	-327.68
	30	3.1	-2.65083E-001	-3.14906E-001	-2.89994E-001	-5.48707E-008	-1.57951E-007	1.03080E-007	-3.15000E-001	4.17039E-004	6	..........a	-327.68
	32	3.3	-2.61038E-001	-3.10937E-001	-2.85988E-001	-5.06202E-008	-1.50649E-007	1.00029E-007	-3.11000E-001	4.06873E-004	6	..........a	-327.68
	34	3.5	-2.57054E-001	-3.06926E-001	-2.81990E-001	-4.63867E-008	-1.43693E-007	9.73064E-008	-3.07000E-001	4.07206E-004	6	..........a	-327.68
	36	3.7	-2.53039E-001	-3.02989E-001	-2.78014E-001	-4.23921E-008	-1.37001E-007	9.46090E-008	-3.03000E-001	4.04873E-004	6	..........a	-327.68
	38	3.9	-2.49021E-001	-2.98949E-001	-2.73985E-001	-3.83876E-008	-1.30768E-007	9.23801E-008	-2.99000E-001	4.06206E-004	6	..........a	-327.68
	40	4.1	-2.44976E-001	-2.94937E-001	-2.69957E-001	-3.45782E-008	-1.24603E-007	9.00248E-008	-2.95000E-001	4.09206E-004	6	..........a	-327.68
	42	4.3	-2.41112E-001	-2.90871E-001	-2.65991E-001	-3.10464E-008	-1.18961E-007	8.79145E-008	-2.91000E-001	4.11873E-004	6	..........a	-327.68
	44	4.5	-2.37004E-001	-2.86933E-001	-2.61969E-001	-2.77396E-008	-1.13166E-007	8.54269E-008	-2.87000E-001	4.15039E-004	6	..........a	-327.68
	46	4.7	-2.33045E-001	-2.82902E-001	-2.57974E-001	-2.47849E-008	-1.08103E-007	8.33179E-008	-2.83000E-001	4.26539E-004	6	..........a	-327.68
	48	4.9	-2.29059E-001	-2.78950E-001	-2.54004E-001	-2.17915E-008	-1.03156E-007	8.13643E-008	-2.79000E-001	4.18873E-004	6	..........a	-327.68
	50	5.1	-2.25041E-001	-2.74940E-001	-2.49991E-001	-1.89802E-008	-9.85613E-008	7.95811E-008	-2.75000E-001	4.13206E-004	6	..........a	-327.68
	52	5.3	-2.20993E-001	-2.70957E-001	-2.45975E-001	-1.61931E-008	-9.36983E-008	7.75052E-008	-2.71000E-001	4.13706E-004	6	..........a	-327.68
	54	5.5	-2.17121E-001	-2.66846E-001	-2.41983E-001	-1.40135E-008	-8.92718E-008	7.52582E-008	-2.67000E-001	4.03539E-004	6	..........a	-327.68
	56	5.7	-2.13010E-001	-2.62938E-001	-2.37974E-001	-1.14665E-008	-8.52979E-008	7.38314E-008	-2.63000E-001	4.05539E-004	6	..........a	-327.68
	58	5.9	-2.09057E-001	-2.58893E-001	-2.33975E-001	-9.08991E-009	-8.13458E-008	7.22559E-008	-2.59000E-001	4.15206E-004	6	..........a	-327.68
	60	6.1	-2.05033E-001	-2.54949E-001	-2.29991E-001	-7.13199E-009	-7.73503E-008	7.02183E-008	-2.55000E-001	4.15206E-004	6	..........a	-327.68
	62	6.3	-2.01060E-001	-2.50938E-001	-2.25999E-001	-4.97072E-009	-7.37258E-008	6.87551E-008	-2.51000E-001	4.16373E-004	6	..........a	-327.68
	64	6.5	-1.97023E-001	-2.46926E-001	-2.21974E-001	-3.05314E-009	-7.03770E-008	6.73239E-008	-2.47000E-001	4.16373E-004	6	..........a	-327.68
	66	6.7	-1.93008E-001	-2.42848E-001	-2.17928E-001	-1.32325E-009	-6.69629E-008	6.56397E-008	-2.43000E-001	4.19373E-004	6	..........a	-327.68
	68	6.9	-1.89045E-001	-2.38912E-001	-2.13978E-001	5.83658E-010	-6.38712E-008	6.44549E-008	-2.39000E-001	4.24039E-004	6	..........a	-327.68
	70	7.1	-1.85062E-001	-2.34879E-001	-2.09970E-001	2.34488E-009	-6.10942E-008	6.34391E-008	-2.35000E-001	4.19539E-004	6	..........a	-327.68
	72	7.3	-1.81051E-001	-2.30900E-001	-2.05975E-001	3.78040E-009	-5.80541E-008	6.18345E-008	-2.31000E-001	4.08706E-004	6	..........a	-327.68
	74	7.5	-1.77078E-001	-2.26920E-001	-2.01999E-001	5.13457E-009	-5.54755E-008	6.06101E-008	-2.27000E-001	4.09873E-004	6	..........a	-327.68
	76	7.7	-1.73064E-001	-2.22922E-001	-1.97993E-001	6.70377E-009	-5.27985E-008	5.95022E-008	-2.23000E-001	4.19706E-004	6	..........a	-327.68
	78	7.9	-1.69038E-001	-2.18945E-001	-1.93991E-001	7.83625E-009	-5.06342E-008	5.84704E-008	-2.19000E-001	4.04539E-004	6	..........a	-327.68
	80	8.1	-1.64875E-001	-2.14883E-001	-1.89879E-001	9.36844E-009	-4.84566E-008	5.78250E-008	-2.15000E-001	3.99039E-004	6	..........a	-327.68
	82	8.3	-1.61055E-001	-2.10923E-001	-1.85989E-001	1.04039E-008	-4.62676E-008	5.66715E-008	-2.11000E-001	3.94373E-004	6	..........a	-327.68
	84	8.5	-1.57035E-001	-2.06915E-001	-1.81975E-001	1.17244E-008	-4.43524E-008	5.60768E-008	-2.07000E-001	4.01373E-004	6	..........a	-327.68
	86	8.7	-1.53100E-001	-2.02924E-001	-1.78012E-001	1.28802E-008	-4.25328E-008	5.54131E-008	-2.03000E-001	3.96206E-004	6	..........a	-327.68
	88	8.9	-1.49048E-001	-1.98955E-001	-1.74001E-001	1.39640E-008	-4.07803E-008	5.47443E-008	-1.99000E-001	4.01039E-004	6	..........a	-327.68
	90	9.1	-1.45020E-001	-1.94935E-001	-1.69977E-001	1.50808E-008	-3.89650E-008	5.40459E-008	-1.95000E-001	4.01039E-004	6	..........a	-327.68
	92	9.3	-1.41014E-001	-1.91017E-001	-1.66015E-001	1.61883E-008	-3.73285E-008	5.35168E-008	-1.91000E-001	3.84039E-004	6	..........a	-327.68
	94	9.5	-1.37080E-001	-1.86874E-001	-1.61977E-001	1.69251E-008	-3.58270E-008	5.27520E-008	-1.87000E-001	3.82873E-004	6	..........a	-327.68
	96	9.7	-1.33047E-001	-1.82951E-001	-1.57999E-001	1.79365E-008	-3.46955E-008	5.26320E-008	-1.83000E-001	3.94539E-004	6	..........a	-327.68
	98	9.9	-1.29056E-001	-1.78911E-001	-1.53984E-001	1.88897E-008	-3.31880E-008	5.20776E-008	-1.79000E-001	3.98206E-004	6	..........a	-327.68
	100	10.1	-1.25068E-001	-1.74975E-001	-1.50021E-001	1.96554E-008	-3.21045E-008	5.17599E-008	-1.75000E-001	3.96206E-004	6	..........a	-327.68