File: C-COM3/SWV_10Hz STD3 aptmch 081020_#4.DTA
EXPLAIN
TAG	SQUARE_WAVE
TITLE	LABEL	Square Wave Voltammetry	Test Identifier
DATE	LABEL	8/10/2020	Date
TIME	LABEL	13:16:25	Time
NOTES	NOTES	1	Notes...
	 STD3 aptmch 08102
PSTAT	PSTAT	REF600-24079	Potentiostat
VINIT	QUANT	-3.50000E-001	Initial E (V)
VFINAL	QUANT	-1.50000E-001	Final E (V)
STEPSIZE	QUANT	2.00000E+000	Step Size (mV)
TIMERRES	QUANT	3.33340E-005	&Timer Resolution
FREQUENCY	QUANT	1.00000E+001	Frequency (Hz)
PULSESIZE	QUANT	2.50000E+001	Pulse Size E (mV)
PULSEON	QUANT	1.00000E-001	Pulse &Time (s)
NOISEREJECT	TOGGLE	F	Noise Rejection
AREA	QUANT	2.00000E-002	Sample Area (cm^2)
IMODE	SELECTOR	1	I/E Range Mode
IRANGE	QUANT	1.00000E-003	Max Current (mA)
EQDELAY	IQUANT	10	Equil. Time (s)
IRCOMP	SELECTOR	0	IRComp
PFCOR	QUANT	5.00000E+001	PF Corr. (ohm)
CYCLES	IQUANT	101	C&ycles (#)
ELECTRODETYPE	SELECTOR	0	Electrode Type
STRIPPING	TOGGLE	F	Used for Stripping
POLARITY	TOGGLE	F	Signal Polarity
LINEFREQ	IQUANT	60	Line Frequency (Hz)
INTPERIOD	QUANT	3.3334E-005	Integration Period (s)
SEQUENCER	TOGGLE	TRUE	Run as Sequence
PSTATMODEL	IQUANT	4	Pstat Model
PSTATSECTION	LABEL	REF600-24079	Pstat Section
PSTATSERIALNO	LABEL	24079	Pstat Serial Number
CTRLMODE	IQUANT	1	Control Mode
ELECTROMETER	IQUANT	0	RE=0 or CS=1
IESTAB	IQUANT	2	I/E Stability
CASPEED	IQUANT	6	Control Amp Speed
CONVENTION	IQUANT	1	Current Convention
ICHRANGE	IQUANT	2	Ich Range
ICHRANGEMODE	TOGGLE	F	Ich Auto Range
ICHOFFSETENABLE	TOGGLE	F	Ich Offset Enable
ICHOFFSET	QUANT	0	Ich Offset (V)
ICHFILTER	IQUANT	2	Ich Filter
VCHRANGE	IQUANT	2	Vch Range
VCHRANGEMODE	TOGGLE	F	Vch Auto Range
VCHOFFSETENABLE	TOGGLE	F	Vch Offset Enable
VCHOFFSET	QUANT	0	Vch Offset (V)
VCHFILTER	IQUANT	2	Vch Filter
ACHRANGE	IQUANT	2	Ach Range
ACHOFFSETENABLE	TOGGLE	F	Ach Offset Enable
ACHOFFSET	QUANT	0	Ach Offset (V)
ACHFILTER	IQUANT	1	Ach Filter
IERANGELOWERLIMIT	IQUANT	1	I/E Range Lower Limit
IERANGEMODE	TOGGLE	F	I/E AutoRange
IERANGE	IQUANT	6	I/E Range
POSFEEDENABLE	TOGGLE	F	Positive Feedback IR Comp
POSFEEDRESISTANCE	QUANT	0	Positive Feedback Resistance (ohm)
ACHSELECT	IQUANT	0	Ach Select
SENSECABLEID	IQUANT	13	Sense Cable ID
PWRCABLEID	IQUANT	13	Power Cable ID
DCCALDATE	LABEL	6/30/2020	DC Calibration Date
ACCALDATE	LABEL	6/30/2020	AC Calibration Date
THERMOSELECT	IQUANT	1	Thermo Select
FRAMEWORKVERSION	LABEL	7.8.2	Framework Version
INSTRUMENTVERSION	LABEL	4.40	Instrument Version
CURVE	TABLE	101
	Pt	T	Vfwd	Vrev	Vstep	Ifwd	Irev	Idif	Sig	Ach	IERange	Over	Temp
	#	s	V	V	V	A	A	A	V	V	#	bits	deg C
	0	0.1	-3.24834E-001	-3.74870E-001	-3.49852E-001	-1.17209E-008	-4.36476E-008	3.19267E-008	-3.75000E-001	4.22706E-004	6	..........a	-327.68
	2	0.3	-3.20876E-001	-3.70771E-001	-3.45824E-001	3.41402E-009	-3.69074E-008	4.03215E-008	-3.71000E-001	3.82706E-004	6	..........a	-327.68
	4	0.5	-3.16753E-001	-3.66923E-001	-3.41838E-001	5.19624E-009	-3.46092E-008	3.98054E-008	-3.67000E-001	3.81373E-004	6	..........a	-327.68
	6	0.7	-3.12903E-001	-3.62813E-001	-3.37858E-001	6.25338E-009	-3.31883E-008	3.94417E-008	-3.63000E-001	3.86373E-004	6	..........a	-327.68
	8	0.9	-3.08806E-001	-3.58875E-001	-3.33840E-001	7.26617E-009	-3.19401E-008	3.92063E-008	-3.59000E-001	3.87206E-004	6	..........a	-327.68
	10	1.1	-3.04867E-001	-3.54826E-001	-3.29847E-001	8.06461E-009	-3.09340E-008	3.89986E-008	-3.55000E-001	3.96706E-004	6	..........a	-327.68
	12	1.3	-3.00861E-001	-3.50875E-001	-3.25868E-001	8.67235E-009	-2.99476E-008	3.86199E-008	-3.51000E-001	3.86206E-004	6	..........a	-327.68
	14	1.5	-2.96886E-001	-3.46859E-001	-3.21873E-001	9.10307E-009	-2.93195E-008	3.84226E-008	-3.47000E-001	4.04706E-004	6	..........a	-327.68
	16	1.7	-2.92832E-001	-3.42901E-001	-3.17867E-001	1.00862E-008	-2.85664E-008	3.86526E-008	-3.43000E-001	3.88873E-004	6	..........a	-327.68
	18	1.9	-2.88904E-001	-3.38834E-001	-3.13869E-001	1.08376E-008	-2.81380E-008	3.89756E-008	-3.39000E-001	3.99039E-004	6	..........a	-327.68
	20	2.1	-2.84776E-001	-3.34873E-001	-3.09825E-001	1.12660E-008	-2.76343E-008	3.89003E-008	-3.35000E-001	3.85373E-004	6	..........a	-327.68
	22	2.3	-2.80867E-001	-3.30811E-001	-3.05839E-001	1.19748E-008	-2.70149E-008	3.89896E-008	-3.31000E-001	4.00873E-004	6	..........a	-327.68
	24	2.5	-2.76826E-001	-3.26883E-001	-3.01854E-001	1.27322E-008	-2.64965E-008	3.92287E-008	-3.27000E-001	4.02706E-004	6	..........a	-327.68
	26	2.7	-2.72869E-001	-3.22844E-001	-2.97857E-001	1.34046E-008	-2.63068E-008	3.97114E-008	-3.23000E-001	3.99373E-004	6	..........a	-327.68
	28	2.9	-2.68865E-001	-3.18882E-001	-2.93873E-001	1.40097E-008	-2.61217E-008	4.01314E-008	-3.19000E-001	4.04206E-004	6	..........a	-327.68
	30	3.1	-2.64892E-001	-3.14875E-001	-2.89883E-001	1.44954E-008	-2.60547E-008	4.05502E-008	-3.15000E-001	3.98039E-004	6	..........a	-327.68
	32	3.3	-2.60757E-001	-3.10882E-001	-2.85819E-001	1.50382E-008	-2.58144E-008	4.08525E-008	-3.11000E-001	3.96206E-004	6	..........a	-327.68
	34	3.5	-2.56839E-001	-3.06834E-001	-2.81836E-001	1.57953E-008	-2.58434E-008	4.16386E-008	-3.07000E-001	3.99039E-004	6	..........a	-327.68
	36	3.7	-2.52816E-001	-3.02891E-001	-2.77854E-001	1.61933E-008	-2.57680E-008	4.19613E-008	-3.03000E-001	4.04039E-004	6	..........a	-327.68
	38	3.9	-2.48879E-001	-2.98847E-001	-2.73863E-001	1.66117E-008	-2.56490E-008	4.22607E-008	-2.99000E-001	3.94873E-004	6	..........a	-327.68
	40	4.1	-2.44875E-001	-2.94874E-001	-2.69874E-001	1.67771E-008	-2.55790E-008	4.23561E-008	-2.95000E-001	3.91539E-004	6	..........a	-327.68
	42	4.3	-2.40854E-001	-2.90808E-001	-2.65831E-001	1.69957E-008	-2.54973E-008	4.24931E-008	-2.91000E-001	3.94539E-004	6	..........a	-327.68
	44	4.5	-2.36819E-001	-2.86860E-001	-2.61840E-001	1.70167E-008	-2.53173E-008	4.23341E-008	-2.87000E-001	4.03206E-004	6	..........a	-327.68
	46	4.7	-2.32841E-001	-2.82806E-001	-2.57823E-001	1.68334E-008	-2.49049E-008	4.17383E-008	-2.83000E-001	4.18206E-004	6	..........a	-327.68
	48	4.9	-2.28787E-001	-2.78872E-001	-2.53829E-001	1.69297E-008	-2.45895E-008	4.15193E-008	-2.79000E-001	3.97706E-004	6	..........a	-327.68
	50	5.1	-2.24855E-001	-2.74841E-001	-2.49848E-001	1.68227E-008	-2.43648E-008	4.11876E-008	-2.75000E-001	4.09539E-004	6	..........a	-327.68
	52	5.3	-2.20852E-001	-2.70863E-001	-2.45857E-001	1.65147E-008	-2.35244E-008	4.00391E-008	-2.71000E-001	4.09873E-004	6	..........a	-327.68
	54	5.5	-2.16827E-001	-2.66815E-001	-2.41821E-001	1.67994E-008	-2.33047E-008	4.01041E-008	-2.67000E-001	4.06873E-004	6	..........a	-327.68
	56	5.7	-2.12811E-001	-2.62894E-001	-2.37853E-001	1.66514E-008	-2.26396E-008	3.92910E-008	-2.63000E-001	4.07373E-004	6	..........a	-327.68
	58	5.9	-2.08848E-001	-2.58815E-001	-2.33831E-001	1.65644E-008	-2.19025E-008	3.84669E-008	-2.59000E-001	3.89706E-004	6	..........a	-327.68
	60	6.1	-2.04797E-001	-2.54898E-001	-2.29848E-001	1.64363E-008	-2.12681E-008	3.77045E-008	-2.55000E-001	3.99039E-004	6	..........a	-327.68
	62	6.3	-2.00853E-001	-2.50823E-001	-2.25838E-001	1.64837E-008	-2.08324E-008	3.73161E-008	-2.51000E-001	4.09373E-004	6	..........a	-327.68
	64	6.5	-1.96837E-001	-2.46855E-001	-2.21846E-001	1.64370E-008	-2.02030E-008	3.66400E-008	-2.47000E-001	4.08539E-004	6	..........a	-327.68
	66	6.7	-1.92868E-001	-2.42792E-001	-2.17830E-001	1.62767E-008	-1.98143E-008	3.60909E-008	-2.43000E-001	4.11873E-004	6	..........a	-327.68
	68	6.9	-1.88730E-001	-2.38886E-001	-2.13808E-001	1.63640E-008	-1.91175E-008	3.54815E-008	-2.39000E-001	3.93373E-004	6	..........a	-327.68
	70	7.1	-1.84880E-001	-2.34805E-001	-2.09842E-001	1.64580E-008	-1.86791E-008	3.51371E-008	-2.35000E-001	4.03873E-004	6	..........a	-327.68
	72	7.3	-1.80778E-001	-2.30869E-001	-2.05824E-001	1.66360E-008	-1.83424E-008	3.49784E-008	-2.31000E-001	4.18039E-004	6	..........a	-327.68
	74	7.5	-1.76823E-001	-2.26807E-001	-2.01815E-001	1.65564E-008	-1.79810E-008	3.45374E-008	-2.27000E-001	4.03206E-004	6	..........a	-327.68
	76	7.7	-1.72826E-001	-2.22860E-001	-1.97843E-001	1.66750E-008	-1.76330E-008	3.43080E-008	-2.23000E-001	4.05206E-004	6	..........a	-327.68
	78	7.9	-1.68853E-001	-2.18858E-001	-1.93855E-001	1.67174E-008	-1.74276E-008	3.41450E-008	-2.19000E-001	4.05539E-004	6	..........a	-327.68
	80	8.1	-1.64828E-001	-2.14885E-001	-1.89856E-001	1.66370E-008	-1.69812E-008	3.36183E-008	-2.15000E-001	4.14373E-004	6	..........a	-327.68
	82	8.3	-1.60903E-001	-2.10848E-001	-1.85875E-001	1.70738E-008	-1.67012E-008	3.37750E-008	-2.11000E-001	4.05706E-004	6	..........a	-327.68
	84	8.5	-1.56798E-001	-2.06869E-001	-1.81833E-001	1.69687E-008	-1.62085E-008	3.31772E-008	-2.07000E-001	4.10539E-004	6	..........a	-327.68
	86	8.7	-1.52864E-001	-2.02815E-001	-1.77840E-001	1.72284E-008	-1.62878E-008	3.35163E-008	-2.03000E-001	4.25706E-004	6	..........a	-327.68
	88	8.9	-1.48833E-001	-1.98871E-001	-1.73852E-001	1.70254E-008	-1.59811E-008	3.30065E-008	-1.99000E-001	3.91873E-004	6	..........a	-327.68
	90	9.1	-1.44858E-001	-1.94839E-001	-1.69848E-001	1.75211E-008	-1.58541E-008	3.33752E-008	-1.95000E-001	3.94706E-004	6	..........a	-327.68
	92	9.3	-1.40860E-001	-1.90870E-001	-1.65865E-001	1.76145E-008	-1.55801E-008	3.31946E-008	-1.91000E-001	3.94039E-004	6	..........a	-327.68
	94	9.5	-1.36868E-001	-1.86816E-001	-1.61842E-001	1.76378E-008	-1.54054E-008	3.30432E-008	-1.87000E-001	4.11373E-004	6	..........a	-327.68
	96	9.7	-1.32764E-001	-1.82861E-001	-1.57813E-001	1.76812E-008	-1.50840E-008	3.27652E-008	-1.83000E-001	4.09873E-004	6	..........a	-327.68
	98	9.9	-1.28839E-001	-1.78799E-001	-1.53819E-001	1.77778E-008	-1.51300E-008	3.29079E-008	-1.79000E-001	4.13039E-004	6	..........a	-327.68
	100	10.1	-1.24808E-001	-1.74861E-001	-1.49834E-001	1.78219E-008	-1.49707E-008	3.27925E-008	-1.75000E-001	4.15373E-004	6	..........a	-327.68