File: C-COM3/SWV_10Hz STD3 aptmch 081020_#5.DTA
EXPLAIN
TAG	SQUARE_WAVE
TITLE	LABEL	Square Wave Voltammetry	Test Identifier
DATE	LABEL	8/10/2020	Date
TIME	LABEL	13:16:45	Time
NOTES	NOTES	1	Notes...
	 STD3 aptmch 08102
PSTAT	PSTAT	REF600-24079	Potentiostat
VINIT	QUANT	-3.50000E-001	Initial E (V)
VFINAL	QUANT	-1.50000E-001	Final E (V)
STEPSIZE	QUANT	2.00000E+000	Step Size (mV)
TIMERRES	QUANT	3.33340E-005	&Timer Resolution
FREQUENCY	QUANT	1.00000E+001	Frequency (Hz)
PULSESIZE	QUANT	2.50000E+001	Pulse Size E (mV)
PULSEON	QUANT	1.00000E-001	Pulse &Time (s)
NOISEREJECT	TOGGLE	F	Noise Rejection
AREA	QUANT	2.00000E-002	Sample Area (cm^2)
IMODE	SELECTOR	1	I/E Range Mode
IRANGE	QUANT	1.00000E-003	Max Current (mA)
EQDELAY	IQUANT	10	Equil. Time (s)
IRCOMP	SELECTOR	0	IRComp
PFCOR	QUANT	5.00000E+001	PF Corr. (ohm)
CYCLES	IQUANT	101	C&ycles (#)
ELECTRODETYPE	SELECTOR	0	Electrode Type
STRIPPING	TOGGLE	F	Used for Stripping
POLARITY	TOGGLE	F	Signal Polarity
LINEFREQ	IQUANT	60	Line Frequency (Hz)
INTPERIOD	QUANT	3.3334E-005	Integration Period (s)
SEQUENCER	TOGGLE	TRUE	Run as Sequence
PSTATMODEL	IQUANT	4	Pstat Model
PSTATSECTION	LABEL	REF600-24079	Pstat Section
PSTATSERIALNO	LABEL	24079	Pstat Serial Number
CTRLMODE	IQUANT	1	Control Mode
ELECTROMETER	IQUANT	0	RE=0 or CS=1
IESTAB	IQUANT	2	I/E Stability
CASPEED	IQUANT	6	Control Amp Speed
CONVENTION	IQUANT	1	Current Convention
ICHRANGE	IQUANT	2	Ich Range
ICHRANGEMODE	TOGGLE	F	Ich Auto Range
ICHOFFSETENABLE	TOGGLE	F	Ich Offset Enable
ICHOFFSET	QUANT	0	Ich Offset (V)
ICHFILTER	IQUANT	2	Ich Filter
VCHRANGE	IQUANT	2	Vch Range
VCHRANGEMODE	TOGGLE	F	Vch Auto Range
VCHOFFSETENABLE	TOGGLE	F	Vch Offset Enable
VCHOFFSET	QUANT	0	Vch Offset (V)
VCHFILTER	IQUANT	2	Vch Filter
ACHRANGE	IQUANT	2	Ach Range
ACHOFFSETENABLE	TOGGLE	F	Ach Offset Enable
ACHOFFSET	QUANT	0	Ach Offset (V)
ACHFILTER	IQUANT	1	Ach Filter
IERANGELOWERLIMIT	IQUANT	1	I/E Range Lower Limit
IERANGEMODE	TOGGLE	F	I/E AutoRange
IERANGE	IQUANT	6	I/E Range
POSFEEDENABLE	TOGGLE	F	Positive Feedback IR Comp
POSFEEDRESISTANCE	QUANT	0	Positive Feedback Resistance (ohm)
ACHSELECT	IQUANT	0	Ach Select
SENSECABLEID	IQUANT	13	Sense Cable ID
PWRCABLEID	IQUANT	13	Power Cable ID
DCCALDATE	LABEL	6/30/2020	DC Calibration Date
ACCALDATE	LABEL	6/30/2020	AC Calibration Date
THERMOSELECT	IQUANT	1	Thermo Select
FRAMEWORKVERSION	LABEL	7.8.2	Framework Version
INSTRUMENTVERSION	LABEL	4.40	Instrument Version
CURVE	TABLE	101
	Pt	T	Vfwd	Vrev	Vstep	Ifwd	Irev	Idif	Sig	Ach	IERange	Over	Temp
	#	s	V	V	V	A	A	A	V	V	#	bits	deg C
	0	0.1	-3.24831E-001	-3.74960E-001	-3.49896E-001	-1.13752E-008	-4.30379E-008	3.16627E-008	-3.75000E-001	4.03706E-004	6	..........a	-327.68
	2	0.3	-3.20877E-001	-3.70788E-001	-3.45832E-001	3.63471E-009	-3.60927E-008	3.97274E-008	-3.71000E-001	3.87539E-004	6	..........a	-327.68
	4	0.5	-3.17020E-001	-3.67089E-001	-3.42055E-001	5.40927E-009	-3.40971E-008	3.95064E-008	-3.67000E-001	3.93706E-004	6	..........a	-327.68
	6	0.7	-3.12886E-001	-3.62810E-001	-3.37848E-001	6.49641E-009	-3.26556E-008	3.91520E-008	-3.63000E-001	3.85373E-004	6	..........a	-327.68
	8	0.9	-3.08824E-001	-3.59045E-001	-3.33934E-001	7.65056E-009	-3.13417E-008	3.89923E-008	-3.59000E-001	3.80206E-004	6	..........a	-327.68
	10	1.1	-3.04849E-001	-3.54822E-001	-3.29835E-001	8.28164E-009	-3.05106E-008	3.87923E-008	-3.55000E-001	3.77706E-004	6	..........a	-327.68
	12	1.3	-3.00859E-001	-3.50989E-001	-3.25924E-001	8.82104E-009	-2.95425E-008	3.83635E-008	-3.51000E-001	3.85706E-004	6	..........a	-327.68
	14	1.5	-2.96881E-001	-3.46847E-001	-3.21864E-001	9.30543E-009	-2.89408E-008	3.82462E-008	-3.47000E-001	3.90039E-004	6	..........a	-327.68
	16	1.7	-2.92923E-001	-3.43094E-001	-3.18008E-001	1.01305E-008	-2.83674E-008	3.84979E-008	-3.43000E-001	3.83206E-004	6	..........a	-327.68
	18	1.9	-2.88891E-001	-3.38842E-001	-3.13866E-001	1.06469E-008	-2.75809E-008	3.82279E-008	-3.39000E-001	3.86873E-004	6	..........a	-327.68
	20	2.1	-2.84785E-001	-3.35071E-001	-3.09928E-001	1.14154E-008	-2.73196E-008	3.87349E-008	-3.35000E-001	3.89039E-004	6	..........a	-327.68
	22	2.3	-2.80861E-001	-3.30801E-001	-3.05831E-001	1.21478E-008	-2.66255E-008	3.87733E-008	-3.31000E-001	3.77873E-004	6	..........a	-327.68
	24	2.5	-2.76821E-001	-3.27024E-001	-3.01922E-001	1.27799E-008	-2.60491E-008	3.88289E-008	-3.27000E-001	3.95206E-004	6	..........a	-327.68
	26	2.7	-2.72862E-001	-3.22845E-001	-2.97853E-001	1.32706E-008	-2.60257E-008	3.92963E-008	-3.23000E-001	3.86206E-004	6	..........a	-327.68
	28	2.9	-2.68866E-001	-3.19112E-001	-2.93989E-001	1.40927E-008	-2.57924E-008	3.98851E-008	-3.19000E-001	3.94706E-004	6	..........a	-327.68
	30	3.1	-2.64863E-001	-3.14874E-001	-2.89869E-001	1.46341E-008	-2.56487E-008	4.02828E-008	-3.15000E-001	3.84373E-004	6	..........a	-327.68
	32	3.3	-2.60778E-001	-3.11084E-001	-2.85931E-001	1.51098E-008	-2.55400E-008	4.06498E-008	-3.11000E-001	3.74206E-004	6	..........a	-327.68
	34	3.5	-2.56823E-001	-3.06832E-001	-2.81828E-001	1.58626E-008	-2.52176E-008	4.10802E-008	-3.07000E-001	3.81373E-004	6	..........a	-327.68
	36	3.7	-2.52805E-001	-3.03070E-001	-2.77937E-001	1.62193E-008	-2.54277E-008	4.16470E-008	-3.03000E-001	3.78706E-004	6	..........a	-327.68
	38	3.9	-2.48870E-001	-2.98842E-001	-2.73856E-001	1.66497E-008	-2.51833E-008	4.18330E-008	-2.99000E-001	3.60873E-004	6	..........a	-327.68
	40	4.1	-2.44872E-001	-2.94915E-001	-2.69894E-001	1.67734E-008	-2.51876E-008	4.19610E-008	-2.95000E-001	3.77539E-004	6	..........a	-327.68
	42	4.3	-2.40848E-001	-2.90812E-001	-2.65830E-001	1.69827E-008	-2.49786E-008	4.19613E-008	-2.91000E-001	3.88206E-004	6	..........a	-327.68
	44	4.5	-2.36977E-001	-2.87081E-001	-2.62029E-001	1.70077E-008	-2.48786E-008	4.18863E-008	-2.87000E-001	3.93039E-004	6	..........a	-327.68
	46	4.7	-2.32835E-001	-2.82808E-001	-2.57821E-001	1.72001E-008	-2.44962E-008	4.16963E-008	-2.83000E-001	3.94706E-004	6	..........a	-327.68
	48	4.9	-2.28811E-001	-2.79079E-001	-2.53945E-001	1.70814E-008	-2.41828E-008	4.12643E-008	-2.79000E-001	3.95539E-004	6	..........a	-327.68
	50	5.1	-2.24839E-001	-2.74838E-001	-2.49839E-001	1.68121E-008	-2.37378E-008	4.05498E-008	-2.75000E-001	3.78206E-004	6	..........a	-327.68
	52	5.3	-2.20849E-001	-2.70906E-001	-2.45877E-001	1.70031E-008	-2.31994E-008	4.02024E-008	-2.71000E-001	4.00039E-004	6	..........a	-327.68
	54	5.5	-2.16826E-001	-2.66803E-001	-2.41814E-001	1.68954E-008	-2.26900E-008	3.95854E-008	-2.67000E-001	3.92706E-004	6	..........a	-327.68
	56	5.7	-2.13051E-001	-2.63117E-001	-2.38084E-001	1.70301E-008	-2.23409E-008	3.93710E-008	-2.63000E-001	3.97706E-004	6	..........a	-327.68
	58	5.9	-2.08834E-001	-2.58824E-001	-2.33829E-001	1.67811E-008	-2.17178E-008	3.84989E-008	-2.59000E-001	4.04539E-004	6	..........a	-327.68
	60	6.1	-2.04799E-001	-2.55101E-001	-2.29950E-001	1.67400E-008	-2.09231E-008	3.76631E-008	-2.55000E-001	3.92706E-004	6	..........a	-327.68
	62	6.3	-2.00845E-001	-2.50829E-001	-2.25837E-001	1.66720E-008	-2.03070E-008	3.69790E-008	-2.51000E-001	3.90206E-004	6	..........a	-327.68
	64	6.5	-1.96824E-001	-2.46924E-001	-2.21874E-001	1.67814E-008	-1.98319E-008	3.66133E-008	-2.47000E-001	4.03373E-004	6	..........a	-327.68
	66	6.7	-1.92868E-001	-2.42789E-001	-2.17828E-001	1.68771E-008	-1.92225E-008	3.60996E-008	-2.43000E-001	4.00873E-004	6	..........a	-327.68
	68	6.9	-1.89008E-001	-2.39117E-001	-2.14063E-001	1.67660E-008	-1.89318E-008	3.56979E-008	-2.39000E-001	3.96706E-004	6	..........a	-327.68
	70	7.1	-1.84863E-001	-2.34813E-001	-2.09838E-001	1.68147E-008	-1.84621E-008	3.52768E-008	-2.35000E-001	3.92373E-004	6	..........a	-327.68
	72	7.3	-1.80776E-001	-2.31066E-001	-2.05921E-001	1.67877E-008	-1.81424E-008	3.49301E-008	-2.31000E-001	3.93706E-004	6	..........a	-327.68
	74	7.5	-1.76811E-001	-2.26817E-001	-2.01814E-001	1.69317E-008	-1.75470E-008	3.44787E-008	-2.27000E-001	3.90873E-004	6	..........a	-327.68
	76	7.7	-1.72824E-001	-2.22992E-001	-1.97908E-001	1.69594E-008	-1.72246E-008	3.41840E-008	-2.23000E-001	3.77873E-004	6	..........a	-327.68
	78	7.9	-1.68856E-001	-2.18853E-001	-1.93854E-001	1.71018E-008	-1.69546E-008	3.40563E-008	-2.19000E-001	4.01039E-004	6	..........a	-327.68
	80	8.1	-1.64990E-001	-2.15091E-001	-1.90041E-001	1.72241E-008	-1.67749E-008	3.39990E-008	-2.15000E-001	3.97873E-004	6	..........a	-327.68
	82	8.3	-1.60891E-001	-2.10843E-001	-1.85867E-001	1.73421E-008	-1.65565E-008	3.38986E-008	-2.11000E-001	3.89706E-004	6	..........a	-327.68
	84	8.5	-1.56806E-001	-2.07075E-001	-1.81940E-001	1.73861E-008	-1.60378E-008	3.34239E-008	-2.07000E-001	4.16039E-004	6	..........a	-327.68
	86	8.7	-1.52851E-001	-2.02815E-001	-1.77833E-001	1.75978E-008	-1.57328E-008	3.33306E-008	-2.03000E-001	4.06873E-004	6	..........a	-327.68
	88	8.9	-1.48835E-001	-1.99031E-001	-1.73933E-001	1.75812E-008	-1.58581E-008	3.34393E-008	-1.99000E-001	4.02539E-004	6	..........a	-327.68
	90	9.1	-1.44848E-001	-1.94843E-001	-1.69846E-001	1.77555E-008	-1.55484E-008	3.33039E-008	-1.95000E-001	3.95706E-004	6	..........a	-327.68
	92	9.3	-1.40853E-001	-1.91105E-001	-1.65979E-001	1.77488E-008	-1.52030E-008	3.29519E-008	-1.91000E-001	3.86373E-004	6	..........a	-327.68
	94	9.5	-1.36866E-001	-1.86825E-001	-1.61845E-001	1.79605E-008	-1.48983E-008	3.28588E-008	-1.87000E-001	4.02706E-004	6	..........a	-327.68
	96	9.7	-1.32803E-001	-1.83080E-001	-1.57941E-001	1.81482E-008	-1.49607E-008	3.31089E-008	-1.83000E-001	3.97039E-004	6	..........a	-327.68
	98	9.9	-1.28827E-001	-1.78812E-001	-1.53819E-001	1.82912E-008	-1.48996E-008	3.31909E-008	-1.79000E-001	4.03873E-004	6	..........a	-327.68
	100	10.1	-1.24813E-001	-1.75056E-001	-1.49934E-001	1.83222E-008	-1.46349E-008	3.29572E-008	-1.75000E-001	3.95373E-004	6	..........a	-327.68