File: C-COM3/SWV_10Hz STD3 50  fgml 081020_#6.DTA
EXPLAIN
TAG	SQUARE_WAVE
TITLE	LABEL	Square Wave Voltammetry	Test Identifier
DATE	LABEL	8/10/2020	Date
TIME	LABEL	19:13:31	Time
NOTES	NOTES	1	Notes...
	 STD3 50  fg/mL 08102
PSTAT	PSTAT	REF600-24079	Potentiostat
VINIT	QUANT	-3.50000E-001	Initial E (V)
VFINAL	QUANT	-1.50000E-001	Final E (V)
STEPSIZE	QUANT	2.00000E+000	Step Size (mV)
TIMERRES	QUANT	3.33340E-005	&Timer Resolution
FREQUENCY	QUANT	1.00000E+001	Frequency (Hz)
PULSESIZE	QUANT	2.50000E+001	Pulse Size E (mV)
PULSEON	QUANT	1.00000E-001	Pulse &Time (s)
NOISEREJECT	TOGGLE	F	Noise Rejection
AREA	QUANT	2.00000E-002	Sample Area (cm^2)
IMODE	SELECTOR	1	I/E Range Mode
IRANGE	QUANT	1.00000E-003	Max Current (mA)
EQDELAY	IQUANT	10	Equil. Time (s)
IRCOMP	SELECTOR	0	IRComp
PFCOR	QUANT	5.00000E+001	PF Corr. (ohm)
CYCLES	IQUANT	101	C&ycles (#)
ELECTRODETYPE	SELECTOR	0	Electrode Type
STRIPPING	TOGGLE	F	Used for Stripping
POLARITY	TOGGLE	F	Signal Polarity
LINEFREQ	IQUANT	60	Line Frequency (Hz)
INTPERIOD	QUANT	3.3334E-005	Integration Period (s)
SEQUENCER	TOGGLE	TRUE	Run as Sequence
PSTATMODEL	IQUANT	4	Pstat Model
PSTATSECTION	LABEL	REF600-24079	Pstat Section
PSTATSERIALNO	LABEL	24079	Pstat Serial Number
CTRLMODE	IQUANT	1	Control Mode
ELECTROMETER	IQUANT	0	RE=0 or CS=1
IESTAB	IQUANT	2	I/E Stability
CASPEED	IQUANT	6	Control Amp Speed
CONVENTION	IQUANT	1	Current Convention
ICHRANGE	IQUANT	2	Ich Range
ICHRANGEMODE	TOGGLE	F	Ich Auto Range
ICHOFFSETENABLE	TOGGLE	F	Ich Offset Enable
ICHOFFSET	QUANT	0	Ich Offset (V)
ICHFILTER	IQUANT	2	Ich Filter
VCHRANGE	IQUANT	2	Vch Range
VCHRANGEMODE	TOGGLE	F	Vch Auto Range
VCHOFFSETENABLE	TOGGLE	F	Vch Offset Enable
VCHOFFSET	QUANT	0	Vch Offset (V)
VCHFILTER	IQUANT	2	Vch Filter
ACHRANGE	IQUANT	2	Ach Range
ACHOFFSETENABLE	TOGGLE	F	Ach Offset Enable
ACHOFFSET	QUANT	0	Ach Offset (V)
ACHFILTER	IQUANT	1	Ach Filter
IERANGELOWERLIMIT	IQUANT	1	I/E Range Lower Limit
IERANGEMODE	TOGGLE	F	I/E AutoRange
IERANGE	IQUANT	6	I/E Range
POSFEEDENABLE	TOGGLE	F	Positive Feedback IR Comp
POSFEEDRESISTANCE	QUANT	0	Positive Feedback Resistance (ohm)
ACHSELECT	IQUANT	0	Ach Select
SENSECABLEID	IQUANT	13	Sense Cable ID
PWRCABLEID	IQUANT	13	Power Cable ID
DCCALDATE	LABEL	6/30/2020	DC Calibration Date
ACCALDATE	LABEL	6/30/2020	AC Calibration Date
THERMOSELECT	IQUANT	1	Thermo Select
FRAMEWORKVERSION	LABEL	7.8.2	Framework Version
INSTRUMENTVERSION	LABEL	4.40	Instrument Version
CURVE	TABLE	101
	Pt	T	Vfwd	Vrev	Vstep	Ifwd	Irev	Idif	Sig	Ach	IERange	Over	Temp
	#	s	V	V	V	A	A	A	V	V	#	bits	deg C
	0	0.1	-3.24920E-001	-3.74923E-001	-3.49921E-001	-1.01032E-007	-1.98377E-007	9.73450E-008	-3.75000E-001	3.88706E-004	6	..........a	-327.68
	2	0.3	-3.20906E-001	-3.70800E-001	-3.45853E-001	-8.23226E-008	-1.86130E-007	1.03807E-007	-3.71000E-001	3.66539E-004	6	..........a	-327.68
	4	0.5	-3.16888E-001	-3.66939E-001	-3.41913E-001	-7.68469E-008	-1.78105E-007	1.01258E-007	-3.67000E-001	3.85706E-004	6	..........a	-327.68
	6	0.7	-3.12922E-001	-3.62828E-001	-3.37875E-001	-7.23253E-008	-1.71217E-007	9.88912E-008	-3.63000E-001	3.97539E-004	6	..........a	-327.68
	8	0.9	-3.08890E-001	-3.58898E-001	-3.33894E-001	-6.80874E-008	-1.64366E-007	9.62786E-008	-3.59000E-001	3.97373E-004	6	..........a	-327.68
	10	1.1	-3.04938E-001	-3.54858E-001	-3.29898E-001	-6.40772E-008	-1.57718E-007	9.36412E-008	-3.55000E-001	3.94373E-004	6	..........a	-327.68
	12	1.3	-3.00898E-001	-3.50908E-001	-3.25903E-001	-6.01061E-008	-1.51615E-007	9.15093E-008	-3.51000E-001	3.89539E-004	6	..........a	-327.68
	14	1.5	-2.96886E-001	-3.46903E-001	-3.21895E-001	-5.63406E-008	-1.45775E-007	8.94341E-008	-3.47000E-001	3.85873E-004	6	..........a	-327.68
	16	1.7	-2.92844E-001	-3.42917E-001	-3.17881E-001	-5.24428E-008	-1.39852E-007	8.74088E-008	-3.43000E-001	3.90039E-004	6	..........a	-327.68
	18	1.9	-2.88943E-001	-3.38863E-001	-3.13903E-001	-4.89753E-008	-1.34131E-007	8.51555E-008	-3.39000E-001	3.74706E-004	6	..........a	-327.68
	20	2.1	-2.84898E-001	-3.34905E-001	-3.09902E-001	-4.56529E-008	-1.28775E-007	8.31219E-008	-3.35000E-001	3.93039E-004	6	..........a	-327.68
	22	2.3	-2.80946E-001	-3.30845E-001	-3.05895E-001	-4.21821E-008	-1.23818E-007	8.16354E-008	-3.31000E-001	3.78873E-004	6	..........a	-327.68
	24	2.5	-2.76918E-001	-3.26912E-001	-3.01915E-001	-3.90114E-008	-1.18981E-007	7.99692E-008	-3.27000E-001	3.92039E-004	6	..........a	-327.68
	26	2.7	-2.72922E-001	-3.22890E-001	-2.97906E-001	-3.57953E-008	-1.14259E-007	7.84636E-008	-3.23000E-001	3.89039E-004	6	..........a	-327.68
	28	2.9	-2.68903E-001	-3.18927E-001	-2.93915E-001	-3.26486E-008	-1.09810E-007	7.71615E-008	-3.19000E-001	4.04206E-004	6	..........a	-327.68
	30	3.1	-2.64947E-001	-3.14915E-001	-2.89931E-001	-2.97045E-008	-1.05379E-007	7.56743E-008	-3.15000E-001	3.98873E-004	6	..........a	-327.68
	32	3.3	-2.60896E-001	-3.10910E-001	-2.85903E-001	-2.67822E-008	-1.01262E-007	7.44798E-008	-3.11000E-001	3.90373E-004	6	..........a	-327.68
	34	3.5	-2.56912E-001	-3.06865E-001	-2.81889E-001	-2.39948E-008	-9.74822E-008	7.34873E-008	-3.07000E-001	3.73206E-004	6	..........a	-327.68
	36	3.7	-2.52915E-001	-3.02937E-001	-2.77926E-001	-2.15272E-008	-9.36913E-008	7.21642E-008	-3.03000E-001	3.78206E-004	6	..........a	-327.68
	38	3.9	-2.48914E-001	-2.98889E-001	-2.73901E-001	-1.90432E-008	-8.99702E-008	7.09270E-008	-2.99000E-001	3.78373E-004	6	..........a	-327.68
	40	4.1	-2.44901E-001	-2.94926E-001	-2.69913E-001	-1.67345E-008	-8.65931E-008	6.98586E-008	-2.95000E-001	3.89373E-004	6	..........a	-327.68
	42	4.3	-2.40956E-001	-2.90834E-001	-2.65895E-001	-1.43256E-008	-8.33560E-008	6.90304E-008	-2.91000E-001	3.86539E-004	6	..........a	-327.68
	44	4.5	-2.36898E-001	-2.86903E-001	-2.61901E-001	-1.23527E-008	-8.00379E-008	6.76853E-008	-2.87000E-001	3.86373E-004	6	..........a	-327.68
	46	4.7	-2.32896E-001	-2.82837E-001	-2.57866E-001	-1.05598E-008	-7.70592E-008	6.64995E-008	-2.83000E-001	3.82206E-004	6	..........a	-327.68
	48	4.9	-2.28855E-001	-2.78914E-001	-2.53884E-001	-8.70086E-009	-7.42215E-008	6.55207E-008	-2.79000E-001	3.96373E-004	6	..........a	-327.68
	50	5.1	-2.24907E-001	-2.74884E-001	-2.49896E-001	-7.27167E-009	-7.13228E-008	6.40512E-008	-2.75000E-001	3.93206E-004	6	..........a	-327.68
	52	5.3	-2.20900E-001	-2.70879E-001	-2.45889E-001	-5.40677E-009	-6.85581E-008	6.31514E-008	-2.71000E-001	3.96206E-004	6	..........a	-327.68
	54	5.5	-2.16975E-001	-2.66802E-001	-2.41888E-001	-3.97726E-009	-6.58541E-008	6.18769E-008	-2.67000E-001	3.91373E-004	6	..........a	-327.68
	56	5.7	-2.12924E-001	-2.62888E-001	-2.37906E-001	-2.50540E-009	-6.32128E-008	6.07074E-008	-2.63000E-001	3.86873E-004	6	..........a	-327.68
	58	5.9	-2.08912E-001	-2.58836E-001	-2.33874E-001	-9.96877E-010	-6.07755E-008	5.97786E-008	-2.59000E-001	3.97373E-004	6	..........a	-327.68
	60	6.1	-2.04880E-001	-2.54906E-001	-2.29893E-001	3.43960E-010	-5.83068E-008	5.86508E-008	-2.55000E-001	3.83206E-004	6	..........a	-327.68
	62	6.3	-2.00926E-001	-2.50867E-001	-2.25896E-001	1.53378E-009	-5.60856E-008	5.76193E-008	-2.51000E-001	3.81039E-004	6	..........a	-327.68
	64	6.5	-1.96919E-001	-2.46873E-001	-2.21896E-001	2.61825E-009	-5.38526E-008	5.64709E-008	-2.47000E-001	3.88039E-004	6	..........a	-327.68
	66	6.7	-1.92927E-001	-2.42812E-001	-2.17870E-001	3.77540E-009	-5.17673E-008	5.55427E-008	-2.43000E-001	3.69706E-004	6	..........a	-327.68
	68	6.9	-1.88860E-001	-2.38907E-001	-2.13883E-001	4.65051E-009	-4.98611E-008	5.45116E-008	-2.39000E-001	3.71206E-004	6	..........a	-327.68
	70	7.1	-1.84931E-001	-2.34836E-001	-2.09884E-001	5.65630E-009	-4.79622E-008	5.36185E-008	-2.35000E-001	3.68706E-004	6	..........a	-327.68
	72	7.3	-1.80861E-001	-2.30894E-001	-2.05877E-001	6.60276E-009	-4.60936E-008	5.26964E-008	-2.31000E-001	3.84873E-004	6	..........a	-327.68
	74	7.5	-1.76915E-001	-2.26855E-001	-2.01885E-001	7.63255E-009	-4.45177E-008	5.21503E-008	-2.27000E-001	3.63373E-004	6	..........a	-327.68
	76	7.7	-1.72909E-001	-2.22900E-001	-1.97904E-001	8.39265E-009	-4.29365E-008	5.13292E-008	-2.23000E-001	3.49039E-004	6	..........a	-327.68
	78	7.9	-1.68913E-001	-2.18889E-001	-1.93901E-001	9.40145E-009	-4.13617E-008	5.07631E-008	-2.19000E-001	3.52706E-004	6	..........a	-327.68
	80	8.1	-1.64783E-001	-2.14910E-001	-1.89846E-001	1.04819E-008	-3.99368E-008	5.04187E-008	-2.15000E-001	3.57206E-004	6	..........a	-327.68
	82	8.3	-1.60939E-001	-2.10866E-001	-1.85902E-001	1.11497E-008	-3.84266E-008	4.95763E-008	-2.11000E-001	3.46206E-004	6	..........a	-327.68
	84	8.5	-1.56865E-001	-2.06917E-001	-1.81891E-001	1.20548E-008	-3.71581E-008	4.92129E-008	-2.07000E-001	3.46873E-004	6	..........a	-327.68
	86	8.7	-1.52943E-001	-2.02852E-001	-1.77898E-001	1.29122E-008	-3.58843E-008	4.87965E-008	-2.03000E-001	3.60539E-004	6	..........a	-327.68
	88	8.9	-1.48905E-001	-1.98926E-001	-1.73915E-001	1.35370E-008	-3.45338E-008	4.80708E-008	-1.99000E-001	3.58706E-004	6	..........a	-327.68
	90	9.1	-1.44918E-001	-1.94886E-001	-1.69902E-001	1.43251E-008	-3.37680E-008	4.80931E-008	-1.95000E-001	3.45206E-004	6	..........a	-327.68
	92	9.3	-1.40914E-001	-1.90941E-001	-1.65928E-001	1.50598E-008	-3.25906E-008	4.76504E-008	-1.91000E-001	3.51706E-004	6	..........a	-327.68
	94	9.5	-1.36935E-001	-1.86850E-001	-1.61892E-001	1.56802E-008	-3.16694E-008	4.73497E-008	-1.87000E-001	3.52206E-004	6	..........a	-327.68
	96	9.7	-1.32847E-001	-1.82904E-001	-1.57875E-001	1.64490E-008	-3.07953E-008	4.72443E-008	-1.83000E-001	3.53206E-004	6	..........a	-327.68
	98	9.9	-1.28882E-001	-1.78837E-001	-1.53859E-001	1.70751E-008	-2.99269E-008	4.70020E-008	-1.79000E-001	3.58873E-004	6	..........a	-327.68
	100	10.1	-1.24897E-001	-1.74909E-001	-1.49903E-001	1.76672E-008	-2.90808E-008	4.67479E-008	-1.75000E-001	3.50373E-004	6	..........a	-327.68