File: Sample Data/Concentration Curve Data/C-COM2/SWV_10Hz STD2 10  fgml 081020_#6.DTA
EXPLAIN
TAG	SQUARE_WAVE
TITLE	LABEL	Square Wave Voltammetry	Test Identifier
DATE	LABEL	8/10/2020	Date
TIME	LABEL	18:10:41	Time
NOTES	NOTES	1	Notes...
	 STD2, 10  fg/mL 08102
PSTAT	PSTAT	REF600-24079	Potentiostat
VINIT	QUANT	-3.50000E-001	Initial E (V)
VFINAL	QUANT	-1.50000E-001	Final E (V)
STEPSIZE	QUANT	2.00000E+000	Step Size (mV)
TIMERRES	QUANT	3.33340E-005	&Timer Resolution
FREQUENCY	QUANT	1.00000E+001	Frequency (Hz)
PULSESIZE	QUANT	2.50000E+001	Pulse Size E (mV)
PULSEON	QUANT	1.00000E-001	Pulse &Time (s)
NOISEREJECT	TOGGLE	F	Noise Rejection
AREA	QUANT	2.00000E-002	Sample Area (cm^2)
IMODE	SELECTOR	1	I/E Range Mode
IRANGE	QUANT	1.00000E-003	Max Current (mA)
EQDELAY	IQUANT	10	Equil. Time (s)
IRCOMP	SELECTOR	0	IRComp
PFCOR	QUANT	5.00000E+001	PF Corr. (ohm)
CYCLES	IQUANT	101	C&ycles (#)
ELECTRODETYPE	SELECTOR	0	Electrode Type
STRIPPING	TOGGLE	F	Used for Stripping
POLARITY	TOGGLE	F	Signal Polarity
LINEFREQ	IQUANT	60	Line Frequency (Hz)
INTPERIOD	QUANT	3.3334E-005	Integration Period (s)
SEQUENCER	TOGGLE	TRUE	Run as Sequence
PSTATMODEL	IQUANT	4	Pstat Model
PSTATSECTION	LABEL	REF600-24079	Pstat Section
PSTATSERIALNO	LABEL	24079	Pstat Serial Number
CTRLMODE	IQUANT	1	Control Mode
ELECTROMETER	IQUANT	0	RE=0 or CS=1
IESTAB	IQUANT	2	I/E Stability
CASPEED	IQUANT	6	Control Amp Speed
CONVENTION	IQUANT	1	Current Convention
ICHRANGE	IQUANT	2	Ich Range
ICHRANGEMODE	TOGGLE	F	Ich Auto Range
ICHOFFSETENABLE	TOGGLE	F	Ich Offset Enable
ICHOFFSET	QUANT	0	Ich Offset (V)
ICHFILTER	IQUANT	2	Ich Filter
VCHRANGE	IQUANT	2	Vch Range
VCHRANGEMODE	TOGGLE	F	Vch Auto Range
VCHOFFSETENABLE	TOGGLE	F	Vch Offset Enable
VCHOFFSET	QUANT	0	Vch Offset (V)
VCHFILTER	IQUANT	2	Vch Filter
ACHRANGE	IQUANT	2	Ach Range
ACHOFFSETENABLE	TOGGLE	F	Ach Offset Enable
ACHOFFSET	QUANT	0	Ach Offset (V)
ACHFILTER	IQUANT	1	Ach Filter
IERANGELOWERLIMIT	IQUANT	1	I/E Range Lower Limit
IERANGEMODE	TOGGLE	F	I/E AutoRange
IERANGE	IQUANT	6	I/E Range
POSFEEDENABLE	TOGGLE	F	Positive Feedback IR Comp
POSFEEDRESISTANCE	QUANT	0	Positive Feedback Resistance (ohm)
ACHSELECT	IQUANT	0	Ach Select
SENSECABLEID	IQUANT	13	Sense Cable ID
PWRCABLEID	IQUANT	13	Power Cable ID
DCCALDATE	LABEL	6/30/2020	DC Calibration Date
ACCALDATE	LABEL	6/30/2020	AC Calibration Date
THERMOSELECT	IQUANT	1	Thermo Select
FRAMEWORKVERSION	LABEL	7.8.2	Framework Version
INSTRUMENTVERSION	LABEL	4.40	Instrument Version
CURVE	TABLE	101
	Pt	T	Vfwd	Vrev	Vstep	Ifwd	Irev	Idif	Sig	Ach	IERange	Over	Temp
	#	s	V	V	V	A	A	A	V	V	#	bits	deg C
	0	0.1	-3.24866E-001	-3.74884E-001	-3.49875E-001	-8.57597E-008	-1.65944E-007	8.01839E-008	-3.75000E-001	3.81873E-004	6	..........a	-327.68
	2	0.3	-3.20844E-001	-3.70790E-001	-3.45817E-001	-6.73647E-008	-1.54644E-007	8.72794E-008	-3.71000E-001	3.85373E-004	6	..........a	-327.68
	4	0.5	-3.16802E-001	-3.66862E-001	-3.41832E-001	-6.26194E-008	-1.48808E-007	8.61883E-008	-3.67000E-001	3.87873E-004	6	..........a	-327.68
	6	0.7	-3.12708E-001	-3.62816E-001	-3.37762E-001	-5.90659E-008	-1.43111E-007	8.40450E-008	-3.63000E-001	3.79539E-004	6	..........a	-327.68
	8	0.9	-3.08853E-001	-3.58860E-001	-3.33856E-001	-5.55312E-008	-1.38088E-007	8.25568E-008	-3.59000E-001	3.76706E-004	6	..........a	-327.68
	10	1.1	-3.04805E-001	-3.54842E-001	-3.29824E-001	-5.20667E-008	-1.33226E-007	8.11593E-008	-3.55000E-001	3.85206E-004	6	..........a	-327.68
	12	1.3	-3.00891E-001	-3.50875E-001	-3.25883E-001	-4.88636E-008	-1.28679E-007	7.98151E-008	-3.51000E-001	3.79539E-004	6	..........a	-327.68
	14	1.5	-2.96870E-001	-3.46877E-001	-3.21873E-001	-4.60556E-008	-1.24025E-007	7.79689E-008	-3.47000E-001	3.74539E-004	6	..........a	-327.68
	16	1.7	-2.92739E-001	-3.42827E-001	-3.17783E-001	-4.27752E-008	-1.19675E-007	7.69001E-008	-3.43000E-001	3.98373E-004	6	..........a	-327.68
	18	1.9	-2.88698E-001	-3.38821E-001	-3.13759E-001	-3.98425E-008	-1.15463E-007	7.56206E-008	-3.39000E-001	3.66873E-004	6	..........a	-327.68
	20	2.1	-2.84803E-001	-3.34846E-001	-3.09825E-001	-3.69805E-008	-1.11337E-007	7.43565E-008	-3.35000E-001	3.81873E-004	6	..........a	-327.68
	22	2.3	-2.80818E-001	-3.30819E-001	-3.05819E-001	-3.42211E-008	-1.07571E-007	7.33503E-008	-3.31000E-001	3.81706E-004	6	..........a	-327.68
	24	2.5	-2.76861E-001	-3.26877E-001	-3.01869E-001	-3.13314E-008	-1.03970E-007	7.26386E-008	-3.27000E-001	3.75706E-004	6	..........a	-327.68
	26	2.7	-2.72856E-001	-3.22860E-001	-2.97858E-001	-2.84557E-008	-1.00288E-007	7.18325E-008	-3.23000E-001	3.54873E-004	6	..........a	-327.68
	28	2.9	-2.68874E-001	-3.18833E-001	-2.93854E-001	-2.56757E-008	-9.71111E-008	7.14354E-008	-3.19000E-001	3.64706E-004	6	..........a	-327.68
	30	3.1	-2.64643E-001	-3.14896E-001	-2.89769E-001	-2.30513E-008	-9.36840E-008	7.06327E-008	-3.15000E-001	3.70539E-004	6	..........a	-327.68
	32	3.3	-2.60826E-001	-3.10866E-001	-2.85846E-001	-2.05957E-008	-9.07316E-008	7.01359E-008	-3.11000E-001	3.81206E-004	6	..........a	-327.68
	34	3.5	-2.56795E-001	-3.06833E-001	-2.81814E-001	-1.82184E-008	-8.81120E-008	6.98936E-008	-3.07000E-001	3.75206E-004	6	..........a	-327.68
	36	3.7	-2.52848E-001	-3.02885E-001	-2.77867E-001	-1.59935E-008	-8.52192E-008	6.92258E-008	-3.03000E-001	3.85539E-004	6	..........a	-327.68
	38	3.9	-2.48863E-001	-2.98869E-001	-2.73866E-001	-1.36805E-008	-8.27123E-008	6.90318E-008	-2.99000E-001	3.70039E-004	6	..........a	-327.68
	40	4.1	-2.44874E-001	-2.94869E-001	-2.69872E-001	-1.19313E-008	-8.00553E-008	6.81240E-008	-2.95000E-001	3.78873E-004	6	..........a	-327.68
	42	4.3	-2.40642E-001	-2.90812E-001	-2.65727E-001	-9.89868E-009	-7.76740E-008	6.77753E-008	-2.91000E-001	3.72873E-004	6	..........a	-327.68
	44	4.5	-2.36840E-001	-2.86853E-001	-2.61846E-001	-8.23680E-009	-7.52660E-008	6.70292E-008	-2.87000E-001	3.96039E-004	6	..........a	-327.68
	46	4.7	-2.32784E-001	-2.82813E-001	-2.57798E-001	-6.45891E-009	-7.30174E-008	6.65585E-008	-2.83000E-001	3.96373E-004	6	..........a	-327.68
	48	4.9	-2.28805E-001	-2.78859E-001	-2.53832E-001	-5.17941E-009	-7.07838E-008	6.56043E-008	-2.79000E-001	3.89206E-004	6	..........a	-327.68
	50	5.1	-2.24846E-001	-2.74842E-001	-2.49844E-001	-3.73056E-009	-6.82278E-008	6.44972E-008	-2.75000E-001	3.89873E-004	6	..........a	-327.68
	52	5.3	-2.20868E-001	-2.70864E-001	-2.45866E-001	-2.51374E-009	-6.60085E-008	6.34947E-008	-2.71000E-001	3.79206E-004	6	..........a	-327.68
	54	5.5	-2.16618E-001	-2.66793E-001	-2.41705E-001	-1.17590E-009	-6.39065E-008	6.27306E-008	-2.67000E-001	3.89539E-004	6	..........a	-327.68
	56	5.7	-2.12861E-001	-2.62867E-001	-2.37864E-001	-5.50903E-011	-6.17069E-008	6.16518E-008	-2.63000E-001	3.81206E-004	6	..........a	-327.68
	58	5.9	-2.08734E-001	-2.58817E-001	-2.33776E-001	1.19674E-009	-5.94783E-008	6.06751E-008	-2.59000E-001	3.92706E-004	6	..........a	-327.68
	60	6.1	-2.04826E-001	-2.54879E-001	-2.29852E-001	2.42289E-009	-5.74497E-008	5.98726E-008	-2.55000E-001	3.92373E-004	6	..........a	-327.68
	62	6.3	-2.00840E-001	-2.50841E-001	-2.25840E-001	3.00230E-009	-5.51974E-008	5.81997E-008	-2.51000E-001	3.63706E-004	6	..........a	-327.68
	64	6.5	-1.96869E-001	-2.46874E-001	-2.21871E-001	3.97942E-009	-5.30405E-008	5.70199E-008	-2.47000E-001	3.66873E-004	6	..........a	-327.68
	66	6.7	-1.92888E-001	-2.42786E-001	-2.17837E-001	5.06623E-009	-5.12883E-008	5.63545E-008	-2.43000E-001	3.52873E-004	6	..........a	-327.68
	68	6.9	-1.88772E-001	-2.38846E-001	-2.13809E-001	5.82232E-009	-4.95601E-008	5.53824E-008	-2.39000E-001	3.64373E-004	6	..........a	-327.68
	70	7.1	-1.84711E-001	-2.34814E-001	-2.09762E-001	6.71744E-009	-4.76915E-008	5.44089E-008	-2.35000E-001	3.61373E-004	6	..........a	-327.68
	72	7.3	-1.80762E-001	-2.30851E-001	-2.05806E-001	7.60055E-009	-4.58096E-008	5.34101E-008	-2.31000E-001	3.50706E-004	6	..........a	-327.68
	74	7.5	-1.76834E-001	-2.26822E-001	-2.01828E-001	8.43932E-009	-4.44917E-008	5.29311E-008	-2.27000E-001	3.50873E-004	6	..........a	-327.68
	76	7.7	-1.72828E-001	-2.22864E-001	-1.97846E-001	9.41478E-009	-4.30896E-008	5.25043E-008	-2.23000E-001	3.71873E-004	6	..........a	-327.68
	78	7.9	-1.68869E-001	-2.18861E-001	-1.93865E-001	1.02022E-008	-4.16227E-008	5.18249E-008	-2.19000E-001	3.66706E-004	6	..........a	-327.68
	80	8.1	-1.64715E-001	-2.14832E-001	-1.89773E-001	1.09660E-008	-4.02129E-008	5.11788E-008	-2.15000E-001	3.69373E-004	6	..........a	-327.68
	82	8.3	-1.60739E-001	-2.10847E-001	-1.85793E-001	1.18901E-008	-3.86917E-008	5.05818E-008	-2.11000E-001	3.60706E-004	6	..........a	-327.68
	84	8.5	-1.56796E-001	-2.06867E-001	-1.81831E-001	1.27722E-008	-3.78732E-008	5.06454E-008	-2.07000E-001	3.47539E-004	6	..........a	-327.68
	86	8.7	-1.52789E-001	-2.02823E-001	-1.77806E-001	1.33416E-008	-3.64734E-008	4.98150E-008	-2.03000E-001	3.62373E-004	6	..........a	-327.68
	88	8.9	-1.48833E-001	-1.98878E-001	-1.73856E-001	1.41127E-008	-3.55089E-008	4.96216E-008	-1.99000E-001	3.61539E-004	6	..........a	-327.68
	90	9.1	-1.44862E-001	-1.94862E-001	-1.69862E-001	1.47511E-008	-3.44635E-008	4.92146E-008	-1.95000E-001	3.73706E-004	6	..........a	-327.68
	92	9.3	-1.40884E-001	-1.90823E-001	-1.65853E-001	1.57396E-008	-3.33827E-008	4.91222E-008	-1.91000E-001	3.61706E-004	6	..........a	-327.68
	94	9.5	-1.36649E-001	-1.86842E-001	-1.61745E-001	1.63080E-008	-3.23385E-008	4.86465E-008	-1.87000E-001	3.58373E-004	6	..........a	-327.68
	96	9.7	-1.32790E-001	-1.82854E-001	-1.57822E-001	1.69621E-008	-3.15811E-008	4.85432E-008	-1.83000E-001	3.58206E-004	6	..........a	-327.68
	98	9.9	-1.28808E-001	-1.78825E-001	-1.53816E-001	1.75558E-008	-3.06730E-008	4.82288E-008	-1.79000E-001	3.55039E-004	6	..........a	-327.68
	100	10.1	-1.24838E-001	-1.74871E-001	-1.49855E-001	1.83072E-008	-3.00449E-008	4.83521E-008	-1.75000E-001	3.64039E-004	6	..........a	-327.68