File: Sample Data/Concentration Curve Data/C-COM2/SWV_10Hz STD2 10  fgml 081020_#2.DTA
EXPLAIN
TAG	SQUARE_WAVE
TITLE	LABEL	Square Wave Voltammetry	Test Identifier
DATE	LABEL	8/10/2020	Date
TIME	LABEL	18:09:20	Time
NOTES	NOTES	1	Notes...
	 STD2, 10  fg/mL 08102
PSTAT	PSTAT	REF600-24079	Potentiostat
VINIT	QUANT	-3.50000E-001	Initial E (V)
VFINAL	QUANT	-1.50000E-001	Final E (V)
STEPSIZE	QUANT	2.00000E+000	Step Size (mV)
TIMERRES	QUANT	3.33340E-005	&Timer Resolution
FREQUENCY	QUANT	1.00000E+001	Frequency (Hz)
PULSESIZE	QUANT	2.50000E+001	Pulse Size E (mV)
PULSEON	QUANT	1.00000E-001	Pulse &Time (s)
NOISEREJECT	TOGGLE	F	Noise Rejection
AREA	QUANT	2.00000E-002	Sample Area (cm^2)
IMODE	SELECTOR	1	I/E Range Mode
IRANGE	QUANT	1.00000E-003	Max Current (mA)
EQDELAY	IQUANT	10	Equil. Time (s)
IRCOMP	SELECTOR	0	IRComp
PFCOR	QUANT	5.00000E+001	PF Corr. (ohm)
CYCLES	IQUANT	101	C&ycles (#)
ELECTRODETYPE	SELECTOR	0	Electrode Type
STRIPPING	TOGGLE	F	Used for Stripping
POLARITY	TOGGLE	F	Signal Polarity
LINEFREQ	IQUANT	60	Line Frequency (Hz)
INTPERIOD	QUANT	3.3334E-005	Integration Period (s)
SEQUENCER	TOGGLE	TRUE	Run as Sequence
PSTATMODEL	IQUANT	4	Pstat Model
PSTATSECTION	LABEL	REF600-24079	Pstat Section
PSTATSERIALNO	LABEL	24079	Pstat Serial Number
CTRLMODE	IQUANT	1	Control Mode
ELECTROMETER	IQUANT	0	RE=0 or CS=1
IESTAB	IQUANT	2	I/E Stability
CASPEED	IQUANT	6	Control Amp Speed
CONVENTION	IQUANT	1	Current Convention
ICHRANGE	IQUANT	2	Ich Range
ICHRANGEMODE	TOGGLE	F	Ich Auto Range
ICHOFFSETENABLE	TOGGLE	F	Ich Offset Enable
ICHOFFSET	QUANT	0	Ich Offset (V)
ICHFILTER	IQUANT	2	Ich Filter
VCHRANGE	IQUANT	2	Vch Range
VCHRANGEMODE	TOGGLE	F	Vch Auto Range
VCHOFFSETENABLE	TOGGLE	F	Vch Offset Enable
VCHOFFSET	QUANT	0	Vch Offset (V)
VCHFILTER	IQUANT	2	Vch Filter
ACHRANGE	IQUANT	2	Ach Range
ACHOFFSETENABLE	TOGGLE	F	Ach Offset Enable
ACHOFFSET	QUANT	0	Ach Offset (V)
ACHFILTER	IQUANT	1	Ach Filter
IERANGELOWERLIMIT	IQUANT	1	I/E Range Lower Limit
IERANGEMODE	TOGGLE	F	I/E AutoRange
IERANGE	IQUANT	6	I/E Range
POSFEEDENABLE	TOGGLE	F	Positive Feedback IR Comp
POSFEEDRESISTANCE	QUANT	0	Positive Feedback Resistance (ohm)
ACHSELECT	IQUANT	0	Ach Select
SENSECABLEID	IQUANT	13	Sense Cable ID
PWRCABLEID	IQUANT	13	Power Cable ID
DCCALDATE	LABEL	6/30/2020	DC Calibration Date
ACCALDATE	LABEL	6/30/2020	AC Calibration Date
THERMOSELECT	IQUANT	1	Thermo Select
FRAMEWORKVERSION	LABEL	7.8.2	Framework Version
INSTRUMENTVERSION	LABEL	4.40	Instrument Version
CURVE	TABLE	101
	Pt	T	Vfwd	Vrev	Vstep	Ifwd	Irev	Idif	Sig	Ach	IERange	Over	Temp
	#	s	V	V	V	A	A	A	V	V	#	bits	deg C
	0	0.1	-3.24868E-001	-3.74883E-001	-3.49875E-001	-9.85873E-008	-1.89665E-007	9.10772E-008	-3.75000E-001	3.74039E-004	6	..........a	-327.68
	2	0.3	-3.20866E-001	-3.70765E-001	-3.45815E-001	-7.98462E-008	-1.77280E-007	9.74334E-008	-3.71000E-001	4.00539E-004	6	..........a	-327.68
	4	0.5	-3.16809E-001	-3.66892E-001	-3.41850E-001	-7.45329E-008	-1.69693E-007	9.51598E-008	-3.67000E-001	4.02206E-004	6	..........a	-327.68
	6	0.7	-3.12875E-001	-3.62796E-001	-3.37836E-001	-7.02537E-008	-1.62854E-007	9.26008E-008	-3.63000E-001	4.01539E-004	6	..........a	-327.68
	8	0.9	-3.08813E-001	-3.58850E-001	-3.33831E-001	-6.60215E-008	-1.56383E-007	9.03618E-008	-3.59000E-001	4.02373E-004	6	..........a	-327.68
	10	1.1	-3.04875E-001	-3.54817E-001	-3.29846E-001	-6.21360E-008	-1.50427E-007	8.82909E-008	-3.55000E-001	3.86873E-004	6	..........a	-327.68
	12	1.3	-3.00864E-001	-3.50878E-001	-3.25871E-001	-5.81682E-008	-1.44606E-007	8.64383E-008	-3.51000E-001	3.80039E-004	6	..........a	-327.68
	14	1.5	-2.96877E-001	-3.46864E-001	-3.21870E-001	-5.44687E-008	-1.38945E-007	8.44761E-008	-3.47000E-001	3.86539E-004	6	..........a	-327.68
	16	1.7	-2.92762E-001	-3.42872E-001	-3.17817E-001	-5.07702E-008	-1.33739E-007	8.29692E-008	-3.43000E-001	3.81206E-004	6	..........a	-327.68
	18	1.9	-2.88898E-001	-3.38807E-001	-3.13852E-001	-4.72184E-008	-1.28744E-007	8.15254E-008	-3.39000E-001	3.74706E-004	6	..........a	-327.68
	20	2.1	-2.84796E-001	-3.34860E-001	-3.09828E-001	-4.38720E-008	-1.23964E-007	8.00922E-008	-3.35000E-001	3.80039E-004	6	..........a	-327.68
	22	2.3	-2.80897E-001	-3.30801E-001	-3.05849E-001	-4.04016E-008	-1.19472E-007	7.90704E-008	-3.31000E-001	3.83039E-004	6	..........a	-327.68
	24	2.5	-2.76857E-001	-3.26873E-001	-3.01865E-001	-3.72965E-008	-1.15067E-007	7.77702E-008	-3.27000E-001	3.82373E-004	6	..........a	-327.68
	26	2.7	-2.72873E-001	-3.22841E-001	-2.97857E-001	-3.39571E-008	-1.10858E-007	7.69004E-008	-3.23000E-001	3.73873E-004	6	..........a	-327.68
	28	2.9	-2.68883E-001	-3.18883E-001	-2.93883E-001	-3.07567E-008	-1.06913E-007	7.61564E-008	-3.19000E-001	3.93373E-004	6	..........a	-327.68
	30	3.1	-2.64893E-001	-3.14852E-001	-2.89872E-001	-2.77359E-008	-1.03052E-007	7.53156E-008	-3.15000E-001	3.88706E-004	6	..........a	-327.68
	32	3.3	-2.60812E-001	-3.10865E-001	-2.85839E-001	-2.48396E-008	-9.97454E-008	7.49059E-008	-3.11000E-001	3.79039E-004	6	..........a	-327.68
	34	3.5	-2.56858E-001	-3.06820E-001	-2.81839E-001	-2.20652E-008	-9.64697E-008	7.44045E-008	-3.07000E-001	3.92206E-004	6	..........a	-327.68
	36	3.7	-2.52860E-001	-3.02904E-001	-2.77882E-001	-1.96082E-008	-9.32363E-008	7.36280E-008	-3.03000E-001	3.89039E-004	6	..........a	-327.68
	38	3.9	-2.48882E-001	-2.98848E-001	-2.73865E-001	-1.68959E-008	-9.02726E-008	7.33767E-008	-2.99000E-001	3.77873E-004	6	..........a	-327.68
	40	4.1	-2.44870E-001	-2.94887E-001	-2.69878E-001	-1.48300E-008	-8.73939E-008	7.25639E-008	-2.95000E-001	3.75539E-004	6	..........a	-327.68
	42	4.3	-2.40904E-001	-2.90799E-001	-2.65852E-001	-1.25607E-008	-8.49196E-008	7.23589E-008	-2.91000E-001	3.75706E-004	6	..........a	-327.68
	44	4.5	-2.36826E-001	-2.86853E-001	-2.61839E-001	-1.07158E-008	-8.19855E-008	7.12697E-008	-2.87000E-001	3.82539E-004	6	..........a	-327.68
	46	4.7	-2.32844E-001	-2.82804E-001	-2.57824E-001	-9.03990E-009	-7.94065E-008	7.03666E-008	-2.83000E-001	3.82039E-004	6	..........a	-327.68
	48	4.9	-2.28808E-001	-2.78856E-001	-2.53832E-001	-7.46270E-009	-7.65595E-008	6.90968E-008	-2.79000E-001	3.92873E-004	6	..........a	-327.68
	50	5.1	-2.24857E-001	-2.74839E-001	-2.49848E-001	-5.89217E-009	-7.41615E-008	6.82694E-008	-2.75000E-001	3.94206E-004	6	..........a	-327.68
	52	5.3	-2.20874E-001	-2.70877E-001	-2.45875E-001	-4.57166E-009	-7.17259E-008	6.71542E-008	-2.71000E-001	4.00206E-004	6	..........a	-327.68
	54	5.5	-2.16919E-001	-2.66776E-001	-2.41847E-001	-3.10148E-009	-6.87925E-008	6.56910E-008	-2.67000E-001	3.82373E-004	6	..........a	-327.68
	56	5.7	-2.12878E-001	-2.62863E-001	-2.37870E-001	-1.80698E-009	-6.63489E-008	6.45419E-008	-2.63000E-001	4.05706E-004	6	..........a	-327.68
	58	5.9	-2.08871E-001	-2.58795E-001	-2.33833E-001	-5.61488E-010	-6.36235E-008	6.30620E-008	-2.59000E-001	3.87039E-004	6	..........a	-327.68
	60	6.1	-2.04820E-001	-2.54867E-001	-2.29843E-001	4.34972E-010	-6.10132E-008	6.14482E-008	-2.55000E-001	3.86373E-004	6	..........a	-327.68
	62	6.3	-2.00878E-001	-2.50836E-001	-2.25857E-001	1.55378E-009	-5.90566E-008	6.06104E-008	-2.51000E-001	3.95706E-004	6	..........a	-327.68
	64	6.5	-1.96865E-001	-2.46855E-001	-2.21860E-001	2.73860E-009	-5.65879E-008	5.93265E-008	-2.47000E-001	3.93539E-004	6	..........a	-327.68
	66	6.7	-1.92889E-001	-2.42767E-001	-2.17828E-001	3.51536E-009	-5.43410E-008	5.78564E-008	-2.43000E-001	3.94539E-004	6	..........a	-327.68
	68	6.9	-1.88782E-001	-2.38877E-001	-2.13829E-001	4.37181E-009	-5.23197E-008	5.66915E-008	-2.39000E-001	3.86206E-004	6	..........a	-327.68
	70	7.1	-1.84915E-001	-2.34788E-001	-2.09851E-001	5.55596E-009	-5.03745E-008	5.59305E-008	-2.35000E-001	3.77539E-004	6	..........a	-327.68
	72	7.3	-1.80809E-001	-2.30853E-001	-2.05831E-001	6.38640E-009	-4.85359E-008	5.49223E-008	-2.31000E-001	3.81706E-004	6	..........a	-327.68
	74	7.5	-1.76847E-001	-2.26818E-001	-2.01832E-001	7.40019E-009	-4.69471E-008	5.43473E-008	-2.27000E-001	3.77539E-004	6	..........a	-327.68
	76	7.7	-1.72846E-001	-2.22865E-001	-1.97856E-001	8.21796E-009	-4.52728E-008	5.34908E-008	-2.23000E-001	3.64373E-004	6	..........a	-327.68
	78	7.9	-1.68880E-001	-2.18851E-001	-1.93865E-001	9.13941E-009	-4.36606E-008	5.28001E-008	-2.19000E-001	3.79206E-004	6	..........a	-327.68
	80	8.1	-1.64718E-001	-2.14866E-001	-1.89792E-001	9.98085E-009	-4.22708E-008	5.22516E-008	-2.15000E-001	3.60206E-004	6	..........a	-327.68
	82	8.3	-1.60916E-001	-2.10824E-001	-1.85870E-001	1.09750E-008	-4.07999E-008	5.17749E-008	-2.11000E-001	3.72539E-004	6	..........a	-327.68
	84	8.5	-1.56807E-001	-2.06886E-001	-1.81847E-001	1.17254E-008	-3.93974E-008	5.11228E-008	-2.07000E-001	3.65539E-004	6	..........a	-327.68
	86	8.7	-1.52907E-001	-2.02804E-001	-1.77856E-001	1.24232E-008	-3.81619E-008	5.05851E-008	-2.03000E-001	3.68873E-004	6	..........a	-327.68
	88	8.9	-1.48859E-001	-1.98901E-001	-1.73880E-001	1.30012E-008	-3.69101E-008	4.99113E-008	-1.99000E-001	3.68873E-004	6	..........a	-327.68
	90	9.1	-1.44877E-001	-1.94852E-001	-1.69865E-001	1.40147E-008	-3.57340E-008	4.97487E-008	-1.95000E-001	3.79206E-004	6	..........a	-327.68
	92	9.3	-1.40877E-001	-1.90898E-001	-1.65887E-001	1.46685E-008	-3.48242E-008	4.94926E-008	-1.91000E-001	3.72706E-004	6	..........a	-327.68
	94	9.5	-1.36875E-001	-1.86815E-001	-1.61845E-001	1.52522E-008	-3.37414E-008	4.89936E-008	-1.87000E-001	3.82039E-004	6	..........a	-327.68
	96	9.7	-1.32774E-001	-1.82866E-001	-1.57820E-001	1.61160E-008	-3.28133E-008	4.89292E-008	-1.83000E-001	3.77206E-004	6	..........a	-327.68
	98	9.9	-1.28842E-001	-1.78810E-001	-1.53826E-001	1.66797E-008	-3.17911E-008	4.84708E-008	-1.79000E-001	3.57039E-004	6	..........a	-327.68
	100	10.1	-1.24808E-001	-1.74880E-001	-1.49844E-001	1.71618E-008	-3.10760E-008	4.82378E-008	-1.75000E-001	3.73206E-004	6	..........a	-327.68