File: Sample Data/Concentration Curve Data/C-COM2/SWV_10Hz STD2 aptmch 081020_#8.DTA
EXPLAIN
TAG	SQUARE_WAVE
TITLE	LABEL	Square Wave Voltammetry	Test Identifier
DATE	LABEL	8/10/2020	Date
TIME	LABEL	13:02:38	Time
NOTES	NOTES	1	Notes...
	 STD2 aptmch 08102
PSTAT	PSTAT	REF600-24079	Potentiostat
VINIT	QUANT	-3.50000E-001	Initial E (V)
VFINAL	QUANT	-1.50000E-001	Final E (V)
STEPSIZE	QUANT	2.00000E+000	Step Size (mV)
TIMERRES	QUANT	3.33340E-005	&Timer Resolution
FREQUENCY	QUANT	1.00000E+001	Frequency (Hz)
PULSESIZE	QUANT	2.50000E+001	Pulse Size E (mV)
PULSEON	QUANT	1.00000E-001	Pulse &Time (s)
NOISEREJECT	TOGGLE	F	Noise Rejection
AREA	QUANT	2.00000E-002	Sample Area (cm^2)
IMODE	SELECTOR	1	I/E Range Mode
IRANGE	QUANT	1.00000E-003	Max Current (mA)
EQDELAY	IQUANT	10	Equil. Time (s)
IRCOMP	SELECTOR	0	IRComp
PFCOR	QUANT	5.00000E+001	PF Corr. (ohm)
CYCLES	IQUANT	101	C&ycles (#)
ELECTRODETYPE	SELECTOR	0	Electrode Type
STRIPPING	TOGGLE	F	Used for Stripping
POLARITY	TOGGLE	F	Signal Polarity
LINEFREQ	IQUANT	60	Line Frequency (Hz)
INTPERIOD	QUANT	3.3334E-005	Integration Period (s)
SEQUENCER	TOGGLE	TRUE	Run as Sequence
PSTATMODEL	IQUANT	4	Pstat Model
PSTATSECTION	LABEL	REF600-24079	Pstat Section
PSTATSERIALNO	LABEL	24079	Pstat Serial Number
CTRLMODE	IQUANT	1	Control Mode
ELECTROMETER	IQUANT	0	RE=0 or CS=1
IESTAB	IQUANT	2	I/E Stability
CASPEED	IQUANT	6	Control Amp Speed
CONVENTION	IQUANT	1	Current Convention
ICHRANGE	IQUANT	2	Ich Range
ICHRANGEMODE	TOGGLE	F	Ich Auto Range
ICHOFFSETENABLE	TOGGLE	F	Ich Offset Enable
ICHOFFSET	QUANT	0	Ich Offset (V)
ICHFILTER	IQUANT	2	Ich Filter
VCHRANGE	IQUANT	2	Vch Range
VCHRANGEMODE	TOGGLE	F	Vch Auto Range
VCHOFFSETENABLE	TOGGLE	F	Vch Offset Enable
VCHOFFSET	QUANT	0	Vch Offset (V)
VCHFILTER	IQUANT	2	Vch Filter
ACHRANGE	IQUANT	2	Ach Range
ACHOFFSETENABLE	TOGGLE	F	Ach Offset Enable
ACHOFFSET	QUANT	0	Ach Offset (V)
ACHFILTER	IQUANT	1	Ach Filter
IERANGELOWERLIMIT	IQUANT	1	I/E Range Lower Limit
IERANGEMODE	TOGGLE	F	I/E AutoRange
IERANGE	IQUANT	6	I/E Range
POSFEEDENABLE	TOGGLE	F	Positive Feedback IR Comp
POSFEEDRESISTANCE	QUANT	0	Positive Feedback Resistance (ohm)
ACHSELECT	IQUANT	0	Ach Select
SENSECABLEID	IQUANT	13	Sense Cable ID
PWRCABLEID	IQUANT	13	Power Cable ID
DCCALDATE	LABEL	6/30/2020	DC Calibration Date
ACCALDATE	LABEL	6/30/2020	AC Calibration Date
THERMOSELECT	IQUANT	1	Thermo Select
FRAMEWORKVERSION	LABEL	7.8.2	Framework Version
INSTRUMENTVERSION	LABEL	4.40	Instrument Version
CURVE	TABLE	101
	Pt	T	Vfwd	Vrev	Vstep	Ifwd	Irev	Idif	Sig	Ach	IERange	Over	Temp
	#	s	V	V	V	A	A	A	V	V	#	bits	deg C
	0	0.1	-3.24862E-001	-3.74885E-001	-3.49873E-001	-8.62918E-009	-3.85353E-008	2.99061E-008	-3.75000E-001	4.54373E-004	6	..........a	-327.68
	2	0.3	-3.20899E-001	-3.70786E-001	-3.45843E-001	5.58996E-009	-3.17888E-008	3.73788E-008	-3.71000E-001	4.23539E-004	6	..........a	-327.68
	4	0.5	-3.16753E-001	-3.66917E-001	-3.41835E-001	7.83025E-009	-2.99676E-008	3.77978E-008	-3.67000E-001	4.26039E-004	6	..........a	-327.68
	6	0.7	-3.12898E-001	-3.62812E-001	-3.37855E-001	8.76403E-009	-2.85674E-008	3.73314E-008	-3.63000E-001	4.14039E-004	6	..........a	-327.68
	8	0.9	-3.08789E-001	-3.58860E-001	-3.33824E-001	9.65915E-009	-2.77366E-008	3.73958E-008	-3.59000E-001	4.16706E-004	6	..........a	-327.68
	10	1.1	-3.04851E-001	-3.54822E-001	-3.29837E-001	1.00782E-008	-2.67268E-008	3.68050E-008	-3.55000E-001	4.18539E-004	6	..........a	-327.68
	12	1.3	-3.00858E-001	-3.50867E-001	-3.25863E-001	1.08530E-008	-2.59981E-008	3.68510E-008	-3.51000E-001	4.19039E-004	6	..........a	-327.68
	14	1.5	-2.96881E-001	-3.46854E-001	-3.21868E-001	1.17214E-008	-2.54030E-008	3.71244E-008	-3.47000E-001	4.32039E-004	6	..........a	-327.68
	16	1.7	-2.92682E-001	-3.42866E-001	-3.17774E-001	1.22688E-008	-2.49469E-008	3.72157E-008	-3.43000E-001	4.23539E-004	6	..........a	-327.68
	18	1.9	-2.88912E-001	-3.38810E-001	-3.13861E-001	1.29586E-008	-2.45512E-008	3.75098E-008	-3.39000E-001	4.25706E-004	6	..........a	-327.68
	20	2.1	-2.84745E-001	-3.34882E-001	-3.09813E-001	1.35420E-008	-2.42112E-008	3.77531E-008	-3.35000E-001	4.29039E-004	6	..........a	-327.68
	22	2.3	-2.80876E-001	-3.30802E-001	-3.05839E-001	1.42861E-008	-2.37954E-008	3.80815E-008	-3.31000E-001	4.11873E-004	6	..........a	-327.68
	24	2.5	-2.76818E-001	-3.26870E-001	-3.01844E-001	1.50728E-008	-2.35377E-008	3.86106E-008	-3.27000E-001	4.31039E-004	6	..........a	-327.68
	26	2.7	-2.72859E-001	-3.22843E-001	-2.97851E-001	1.55742E-008	-2.33954E-008	3.89696E-008	-3.23000E-001	4.20039E-004	6	..........a	-327.68
	28	2.9	-2.68874E-001	-3.18901E-001	-2.93887E-001	1.64173E-008	-2.34011E-008	3.98184E-008	-3.19000E-001	4.25039E-004	6	..........a	-327.68
	30	3.1	-2.64875E-001	-3.14868E-001	-2.89871E-001	1.71144E-008	-2.33674E-008	4.04818E-008	-3.15000E-001	4.43706E-004	6	..........a	-327.68
	32	3.3	-2.60786E-001	-3.10865E-001	-2.85826E-001	1.75208E-008	-2.34567E-008	4.09775E-008	-3.11000E-001	4.34539E-004	6	..........a	-327.68
	34	3.5	-2.56863E-001	-3.06817E-001	-2.81840E-001	1.80202E-008	-2.32394E-008	4.12596E-008	-3.07000E-001	4.32373E-004	6	..........a	-327.68
	36	3.7	-2.52858E-001	-3.02897E-001	-2.77878E-001	1.85219E-008	-2.34617E-008	4.19837E-008	-3.03000E-001	4.28206E-004	6	..........a	-327.68
	38	3.9	-2.48889E-001	-2.98847E-001	-2.73868E-001	1.87156E-008	-2.33424E-008	4.20580E-008	-2.99000E-001	4.28873E-004	6	..........a	-327.68
	40	4.1	-2.44875E-001	-2.94878E-001	-2.69877E-001	1.88747E-008	-2.31994E-008	4.20740E-008	-2.95000E-001	4.16706E-004	6	..........a	-327.68
	42	4.3	-2.40861E-001	-2.90796E-001	-2.65829E-001	1.91030E-008	-2.33624E-008	4.24654E-008	-2.91000E-001	4.34706E-004	6	..........a	-327.68
	44	4.5	-2.36836E-001	-2.86858E-001	-2.61847E-001	1.90433E-008	-2.32354E-008	4.22787E-008	-2.87000E-001	4.31706E-004	6	..........a	-327.68
	46	4.7	-2.32854E-001	-2.82807E-001	-2.57830E-001	1.90863E-008	-2.28857E-008	4.19720E-008	-2.83000E-001	4.44539E-004	6	..........a	-327.68
	48	4.9	-2.28786E-001	-2.78856E-001	-2.53821E-001	1.87886E-008	-2.26156E-008	4.14043E-008	-2.79000E-001	4.25206E-004	6	..........a	-327.68
	50	5.1	-2.24874E-001	-2.74831E-001	-2.49853E-001	1.85996E-008	-2.22306E-008	4.08302E-008	-2.75000E-001	4.27539E-004	6	..........a	-327.68
	52	5.3	-2.20866E-001	-2.70888E-001	-2.45877E-001	1.86140E-008	-2.14882E-008	4.01021E-008	-2.71000E-001	4.39873E-004	6	..........a	-327.68
	54	5.5	-2.16874E-001	-2.66789E-001	-2.41831E-001	1.83506E-008	-2.12435E-008	3.95940E-008	-2.67000E-001	4.41039E-004	6	..........a	-327.68
	56	5.7	-2.12833E-001	-2.62898E-001	-2.37866E-001	1.81586E-008	-2.05037E-008	3.86623E-008	-2.63000E-001	4.49206E-004	6	..........a	-327.68
	58	5.9	-2.08859E-001	-2.58800E-001	-2.33829E-001	1.80232E-008	-2.00200E-008	3.80432E-008	-2.59000E-001	4.36706E-004	6	..........a	-327.68
	60	6.1	-2.04807E-001	-2.54894E-001	-2.29850E-001	1.79049E-008	-1.93369E-008	3.72417E-008	-2.55000E-001	4.47706E-004	6	..........a	-327.68
	62	6.3	-2.00861E-001	-2.50827E-001	-2.25844E-001	1.77328E-008	-1.87135E-008	3.64463E-008	-2.51000E-001	4.49039E-004	6	..........a	-327.68
	64	6.5	-1.96861E-001	-2.46876E-001	-2.21869E-001	1.75782E-008	-1.81477E-008	3.57259E-008	-2.47000E-001	4.50706E-004	6	..........a	-327.68
	66	6.7	-1.92876E-001	-2.42780E-001	-2.17828E-001	1.77355E-008	-1.75640E-008	3.52995E-008	-2.43000E-001	4.35706E-004	6	..........a	-327.68
	68	6.9	-1.88756E-001	-2.38893E-001	-2.13824E-001	1.77008E-008	-1.71576E-008	3.48584E-008	-2.39000E-001	4.31539E-004	6	..........a	-327.68
	70	7.1	-1.84889E-001	-2.34803E-001	-2.09846E-001	1.75595E-008	-1.65665E-008	3.41260E-008	-2.35000E-001	4.50706E-004	6	..........a	-327.68
	72	7.3	-1.80782E-001	-2.30856E-001	-2.05819E-001	1.77192E-008	-1.61555E-008	3.38746E-008	-2.31000E-001	4.32373E-004	6	..........a	-327.68
	74	7.5	-1.76839E-001	-2.26807E-001	-2.01823E-001	1.77248E-008	-1.57361E-008	3.34609E-008	-2.27000E-001	4.35706E-004	6	..........a	-327.68
	76	7.7	-1.72832E-001	-2.22852E-001	-1.97842E-001	1.76665E-008	-1.55224E-008	3.31889E-008	-2.23000E-001	4.18206E-004	6	..........a	-327.68
	78	7.9	-1.68863E-001	-2.18840E-001	-1.93852E-001	1.78115E-008	-1.52210E-008	3.30325E-008	-2.19000E-001	4.48373E-004	6	..........a	-327.68
	80	8.1	-1.64727E-001	-2.14859E-001	-1.89793E-001	1.76778E-008	-1.49407E-008	3.26185E-008	-2.15000E-001	4.45039E-004	6	..........a	-327.68
	82	8.3	-1.60905E-001	-2.10817E-001	-1.85861E-001	1.77832E-008	-1.47440E-008	3.25271E-008	-2.11000E-001	4.30706E-004	6	..........a	-327.68
	84	8.5	-1.56789E-001	-2.06865E-001	-1.81827E-001	1.78272E-008	-1.44042E-008	3.22314E-008	-2.07000E-001	4.34539E-004	6	..........a	-327.68
	86	8.7	-1.52865E-001	-2.02804E-001	-1.77834E-001	1.79815E-008	-1.42062E-008	3.21878E-008	-2.03000E-001	4.40039E-004	6	..........a	-327.68
	88	8.9	-1.48847E-001	-1.98884E-001	-1.73865E-001	1.79769E-008	-1.38305E-008	3.18074E-008	-1.99000E-001	4.45706E-004	6	..........a	-327.68
	90	9.1	-1.44858E-001	-1.94835E-001	-1.69847E-001	1.80879E-008	-1.34895E-008	3.15774E-008	-1.95000E-001	4.28039E-004	6	..........a	-327.68
	92	9.3	-1.40872E-001	-1.90906E-001	-1.65889E-001	1.82396E-008	-1.33861E-008	3.16257E-008	-1.91000E-001	4.42206E-004	6	..........a	-327.68
	94	9.5	-1.36860E-001	-1.86802E-001	-1.61831E-001	1.81402E-008	-1.33334E-008	3.14737E-008	-1.87000E-001	4.37373E-004	6	..........a	-327.68
	96	9.7	-1.32781E-001	-1.82859E-001	-1.57820E-001	1.81169E-008	-1.32401E-008	3.13570E-008	-1.83000E-001	4.31039E-004	6	..........a	-327.68
	98	9.9	-1.28834E-001	-1.78801E-001	-1.53817E-001	1.84066E-008	-1.30881E-008	3.14947E-008	-1.79000E-001	4.36039E-004	6	..........a	-327.68
	100	10.1	-1.24812E-001	-1.74863E-001	-1.49837E-001	1.86069E-008	-1.28087E-008	3.14157E-008	-1.75000E-001	4.57373E-004	6	..........a	-327.68