File: Sample Data/Concentration Curve Data/C-COM2/SWV_10Hz STD2 50  fgml 081020_#7.DTA
EXPLAIN
TAG	SQUARE_WAVE
TITLE	LABEL	Square Wave Voltammetry	Test Identifier
DATE	LABEL	8/10/2020	Date
TIME	LABEL	19:28:40	Time
NOTES	NOTES	1	Notes...
	 STD2 50  fg/mL 08102
PSTAT	PSTAT	REF600-24079	Potentiostat
VINIT	QUANT	-3.50000E-001	Initial E (V)
VFINAL	QUANT	-1.50000E-001	Final E (V)
STEPSIZE	QUANT	2.00000E+000	Step Size (mV)
TIMERRES	QUANT	3.33340E-005	&Timer Resolution
FREQUENCY	QUANT	1.00000E+001	Frequency (Hz)
PULSESIZE	QUANT	2.50000E+001	Pulse Size E (mV)
PULSEON	QUANT	1.00000E-001	Pulse &Time (s)
NOISEREJECT	TOGGLE	F	Noise Rejection
AREA	QUANT	2.00000E-002	Sample Area (cm^2)
IMODE	SELECTOR	1	I/E Range Mode
IRANGE	QUANT	1.00000E-003	Max Current (mA)
EQDELAY	IQUANT	10	Equil. Time (s)
IRCOMP	SELECTOR	0	IRComp
PFCOR	QUANT	5.00000E+001	PF Corr. (ohm)
CYCLES	IQUANT	101	C&ycles (#)
ELECTRODETYPE	SELECTOR	0	Electrode Type
STRIPPING	TOGGLE	F	Used for Stripping
POLARITY	TOGGLE	F	Signal Polarity
LINEFREQ	IQUANT	60	Line Frequency (Hz)
INTPERIOD	QUANT	3.3334E-005	Integration Period (s)
SEQUENCER	TOGGLE	TRUE	Run as Sequence
PSTATMODEL	IQUANT	4	Pstat Model
PSTATSECTION	LABEL	REF600-24079	Pstat Section
PSTATSERIALNO	LABEL	24079	Pstat Serial Number
CTRLMODE	IQUANT	1	Control Mode
ELECTROMETER	IQUANT	0	RE=0 or CS=1
IESTAB	IQUANT	2	I/E Stability
CASPEED	IQUANT	6	Control Amp Speed
CONVENTION	IQUANT	1	Current Convention
ICHRANGE	IQUANT	2	Ich Range
ICHRANGEMODE	TOGGLE	F	Ich Auto Range
ICHOFFSETENABLE	TOGGLE	F	Ich Offset Enable
ICHOFFSET	QUANT	0	Ich Offset (V)
ICHFILTER	IQUANT	2	Ich Filter
VCHRANGE	IQUANT	2	Vch Range
VCHRANGEMODE	TOGGLE	F	Vch Auto Range
VCHOFFSETENABLE	TOGGLE	F	Vch Offset Enable
VCHOFFSET	QUANT	0	Vch Offset (V)
VCHFILTER	IQUANT	2	Vch Filter
ACHRANGE	IQUANT	2	Ach Range
ACHOFFSETENABLE	TOGGLE	F	Ach Offset Enable
ACHOFFSET	QUANT	0	Ach Offset (V)
ACHFILTER	IQUANT	1	Ach Filter
IERANGELOWERLIMIT	IQUANT	1	I/E Range Lower Limit
IERANGEMODE	TOGGLE	F	I/E AutoRange
IERANGE	IQUANT	6	I/E Range
POSFEEDENABLE	TOGGLE	F	Positive Feedback IR Comp
POSFEEDRESISTANCE	QUANT	0	Positive Feedback Resistance (ohm)
ACHSELECT	IQUANT	0	Ach Select
SENSECABLEID	IQUANT	13	Sense Cable ID
PWRCABLEID	IQUANT	13	Power Cable ID
DCCALDATE	LABEL	6/30/2020	DC Calibration Date
ACCALDATE	LABEL	6/30/2020	AC Calibration Date
THERMOSELECT	IQUANT	1	Thermo Select
FRAMEWORKVERSION	LABEL	7.8.2	Framework Version
INSTRUMENTVERSION	LABEL	4.40	Instrument Version
CURVE	TABLE	101
	Pt	T	Vfwd	Vrev	Vstep	Ifwd	Irev	Idif	Sig	Ach	IERange	Over	Temp
	#	s	V	V	V	A	A	A	V	V	#	bits	deg C
	0	0.1	-3.24882E-001	-3.74972E-001	-3.49927E-001	-9.60123E-008	-1.87501E-007	9.14890E-008	-3.75000E-001	3.55206E-004	6	..........a	-327.68
	2	0.3	-3.20876E-001	-3.70828E-001	-3.45852E-001	-7.67142E-008	-1.75152E-007	9.84378E-008	-3.71000E-001	3.73873E-004	6	..........a	-327.68
	4	0.5	-3.17083E-001	-3.67110E-001	-3.42096E-001	-7.13632E-008	-1.67916E-007	9.65533E-008	-3.67000E-001	3.59039E-004	6	..........a	-327.68
	6	0.7	-3.12902E-001	-3.62852E-001	-3.37877E-001	-6.71890E-008	-1.61535E-007	9.43463E-008	-3.63000E-001	3.57373E-004	6	..........a	-327.68
	8	0.9	-3.08845E-001	-3.59054E-001	-3.33949E-001	-6.30481E-008	-1.55256E-007	9.22077E-008	-3.59000E-001	3.55373E-004	6	..........a	-327.68
	10	1.1	-3.04899E-001	-3.54863E-001	-3.29881E-001	-5.93673E-008	-1.49474E-007	9.01065E-008	-3.55000E-001	3.67706E-004	6	..........a	-327.68
	12	1.3	-3.00893E-001	-3.50993E-001	-3.25943E-001	-5.55371E-008	-1.43640E-007	8.81029E-008	-3.51000E-001	3.47539E-004	6	..........a	-327.68
	14	1.5	-2.96883E-001	-3.46884E-001	-3.21884E-001	-5.19660E-008	-1.38498E-007	8.65320E-008	-3.47000E-001	3.46539E-004	6	..........a	-327.68
	16	1.7	-2.93044E-001	-3.43075E-001	-3.18059E-001	-4.81729E-008	-1.32931E-007	8.47584E-008	-3.43000E-001	3.45206E-004	6	..........a	-327.68
	18	1.9	-2.88918E-001	-3.38866E-001	-3.13892E-001	-4.50568E-008	-1.27814E-007	8.27569E-008	-3.39000E-001	3.66039E-004	6	..........a	-327.68
	20	2.1	-2.84843E-001	-3.35077E-001	-3.09960E-001	-4.16697E-008	-1.23434E-007	8.17647E-008	-3.35000E-001	3.48039E-004	6	..........a	-327.68
	22	2.3	-2.80905E-001	-3.30856E-001	-3.05881E-001	-3.84660E-008	-1.18495E-007	8.00295E-008	-3.31000E-001	3.59206E-004	6	..........a	-327.68
	24	2.5	-2.76846E-001	-3.27015E-001	-3.01930E-001	-3.52206E-008	-1.14245E-007	7.90247E-008	-3.27000E-001	3.55039E-004	6	..........a	-327.68
	26	2.7	-2.72885E-001	-3.22874E-001	-2.97880E-001	-3.20878E-008	-1.09767E-007	7.76789E-008	-3.23000E-001	3.48373E-004	6	..........a	-327.68
	28	2.9	-2.68877E-001	-3.19107E-001	-2.93992E-001	-2.89158E-008	-1.05784E-007	7.68678E-008	-3.19000E-001	3.56206E-004	6	..........a	-327.68
	30	3.1	-2.64914E-001	-3.14893E-001	-2.89903E-001	-2.61667E-008	-1.01957E-007	7.57906E-008	-3.15000E-001	3.47373E-004	6	..........a	-327.68
	32	3.3	-2.60873E-001	-3.11048E-001	-2.85961E-001	-2.32524E-008	-9.83319E-008	7.50795E-008	-3.11000E-001	3.58206E-004	6	..........a	-327.68
	34	3.5	-2.56893E-001	-3.06875E-001	-2.81884E-001	-2.04133E-008	-9.49095E-008	7.44961E-008	-3.07000E-001	3.57539E-004	6	..........a	-327.68
	36	3.7	-2.52852E-001	-3.03048E-001	-2.77950E-001	-1.82214E-008	-9.14434E-008	7.32220E-008	-3.03000E-001	3.53206E-004	6	..........a	-327.68
	38	3.9	-2.48891E-001	-2.98882E-001	-2.73886E-001	-1.56627E-008	-8.82720E-008	7.26092E-008	-2.99000E-001	3.44206E-004	6	..........a	-327.68
	40	4.1	-2.44886E-001	-2.94905E-001	-2.69896E-001	-1.34441E-008	-8.52846E-008	7.18405E-008	-2.95000E-001	3.59373E-004	6	..........a	-327.68
	42	4.3	-2.40911E-001	-2.90853E-001	-2.65882E-001	-1.12492E-008	-8.24439E-008	7.11947E-008	-2.91000E-001	3.57039E-004	6	..........a	-327.68
	44	4.5	-2.36826E-001	-2.87099E-001	-2.61963E-001	-9.29460E-009	-7.96739E-008	7.03793E-008	-2.87000E-001	3.54039E-004	6	..........a	-327.68
	46	4.7	-2.32872E-001	-2.82852E-001	-2.57862E-001	-7.36402E-009	-7.65328E-008	6.91688E-008	-2.83000E-001	3.44373E-004	6	..........a	-327.68
	48	4.9	-2.28861E-001	-2.79098E-001	-2.53980E-001	-5.92884E-009	-7.39388E-008	6.80100E-008	-2.79000E-001	3.52539E-004	6	..........a	-327.68
	50	5.1	-2.24878E-001	-2.74882E-001	-2.49880E-001	-4.08760E-009	-7.12662E-008	6.71785E-008	-2.75000E-001	3.64206E-004	6	..........a	-327.68
	52	5.3	-2.20876E-001	-2.70872E-001	-2.45874E-001	-2.84645E-009	-6.85298E-008	6.56834E-008	-2.71000E-001	3.53706E-004	6	..........a	-327.68
	54	5.5	-2.16894E-001	-2.66838E-001	-2.41866E-001	-1.16390E-009	-6.60988E-008	6.49349E-008	-2.67000E-001	3.63706E-004	6	..........a	-327.68
	56	5.7	-2.12983E-001	-2.63037E-001	-2.38010E-001	2.15861E-011	-6.33892E-008	6.34107E-008	-2.63000E-001	3.52873E-004	6	..........a	-327.68
	58	5.9	-2.08872E-001	-2.58850E-001	-2.33861E-001	1.47577E-009	-6.09745E-008	6.24503E-008	-2.59000E-001	3.37706E-004	6	..........a	-327.68
	60	6.1	-2.04838E-001	-2.55066E-001	-2.29952E-001	2.45456E-009	-5.84515E-008	6.09061E-008	-2.55000E-001	3.58206E-004	6	..........a	-327.68
	62	6.3	-2.00882E-001	-2.50881E-001	-2.25882E-001	3.43202E-009	-5.63839E-008	5.98159E-008	-2.51000E-001	3.43206E-004	6	..........a	-327.68
	64	6.5	-1.96889E-001	-2.46887E-001	-2.21888E-001	4.77152E-009	-5.40513E-008	5.88228E-008	-2.47000E-001	3.50706E-004	6	..........a	-327.68
	66	6.7	-1.92893E-001	-2.42820E-001	-2.17856E-001	5.54829E-009	-5.17577E-008	5.73060E-008	-2.43000E-001	3.36539E-004	6	..........a	-327.68
	68	6.9	-1.89115E-001	-2.39078E-001	-2.14097E-001	6.78945E-009	-5.00628E-008	5.68522E-008	-2.39000E-001	3.39873E-004	6	..........a	-327.68
	70	7.1	-1.84897E-001	-2.34848E-001	-2.09872E-001	7.62555E-009	-4.80155E-008	5.56411E-008	-2.35000E-001	3.36873E-004	6	..........a	-327.68
	72	7.3	-1.80803E-001	-2.31024E-001	-2.05914E-001	8.94305E-009	-4.61523E-008	5.50953E-008	-2.31000E-001	3.46539E-004	6	..........a	-327.68
	74	7.5	-1.76835E-001	-2.26846E-001	-2.01840E-001	9.64181E-009	-4.45204E-008	5.41622E-008	-2.27000E-001	3.31539E-004	6	..........a	-327.68
	76	7.7	-1.72856E-001	-2.22969E-001	-1.97912E-001	1.06329E-008	-4.28822E-008	5.35151E-008	-2.23000E-001	3.40373E-004	6	..........a	-327.68
	78	7.9	-1.68863E-001	-2.18872E-001	-1.93868E-001	1.13767E-008	-4.10036E-008	5.23803E-008	-2.19000E-001	3.30539E-004	6	..........a	-327.68
	80	8.1	-1.65030E-001	-2.15073E-001	-1.90052E-001	1.24042E-008	-3.97091E-008	5.21133E-008	-2.15000E-001	3.37539E-004	6	..........a	-327.68
	82	8.3	-1.60890E-001	-2.10869E-001	-1.85879E-001	1.32736E-008	-3.82973E-008	5.15709E-008	-2.11000E-001	3.24039E-004	6	..........a	-327.68
	84	8.5	-1.56795E-001	-2.07047E-001	-1.81921E-001	1.42327E-008	-3.68368E-008	5.10695E-008	-2.07000E-001	3.39539E-004	6	..........a	-327.68
	86	8.7	-1.52867E-001	-2.02861E-001	-1.77864E-001	1.49271E-008	-3.56623E-008	5.05894E-008	-2.03000E-001	3.40039E-004	6	..........a	-327.68
	88	8.9	-1.48847E-001	-1.99008E-001	-1.73928E-001	1.54622E-008	-3.47305E-008	5.01927E-008	-1.99000E-001	3.34039E-004	6	..........a	-327.68
	90	9.1	-1.44870E-001	-1.94876E-001	-1.69873E-001	1.62480E-008	-3.36087E-008	4.98567E-008	-1.95000E-001	3.28039E-004	6	..........a	-327.68
	92	9.3	-1.40882E-001	-1.91060E-001	-1.65971E-001	1.71304E-008	-3.25636E-008	4.96940E-008	-1.91000E-001	3.35206E-004	6	..........a	-327.68
	94	9.5	-1.36865E-001	-1.86865E-001	-1.61865E-001	1.76858E-008	-3.15718E-008	4.92576E-008	-1.87000E-001	3.30873E-004	6	..........a	-327.68
	96	9.7	-1.32855E-001	-1.83060E-001	-1.57957E-001	1.83683E-008	-3.07477E-008	4.91159E-008	-1.83000E-001	3.45706E-004	6	..........a	-327.68
	98	9.9	-1.28867E-001	-1.78853E-001	-1.53860E-001	1.91637E-008	-2.95848E-008	4.87485E-008	-1.79000E-001	3.40539E-004	6	..........a	-327.68
	100	10.1	-1.24850E-001	-1.75039E-001	-1.49944E-001	1.96501E-008	-2.88664E-008	4.85165E-008	-1.75000E-001	3.38206E-004	6	..........a	-327.68