File: Sample Data/Concentration Curve Data/C-COM2/SWV_10Hz STD2 50  fgml 081020_#3.DTA
EXPLAIN
TAG	SQUARE_WAVE
TITLE	LABEL	Square Wave Voltammetry	Test Identifier
DATE	LABEL	8/10/2020	Date
TIME	LABEL	19:27:20	Time
NOTES	NOTES	1	Notes...
	 STD2 50  fg/mL 08102
PSTAT	PSTAT	REF600-24079	Potentiostat
VINIT	QUANT	-3.50000E-001	Initial E (V)
VFINAL	QUANT	-1.50000E-001	Final E (V)
STEPSIZE	QUANT	2.00000E+000	Step Size (mV)
TIMERRES	QUANT	3.33340E-005	&Timer Resolution
FREQUENCY	QUANT	1.00000E+001	Frequency (Hz)
PULSESIZE	QUANT	2.50000E+001	Pulse Size E (mV)
PULSEON	QUANT	1.00000E-001	Pulse &Time (s)
NOISEREJECT	TOGGLE	F	Noise Rejection
AREA	QUANT	2.00000E-002	Sample Area (cm^2)
IMODE	SELECTOR	1	I/E Range Mode
IRANGE	QUANT	1.00000E-003	Max Current (mA)
EQDELAY	IQUANT	10	Equil. Time (s)
IRCOMP	SELECTOR	0	IRComp
PFCOR	QUANT	5.00000E+001	PF Corr. (ohm)
CYCLES	IQUANT	101	C&ycles (#)
ELECTRODETYPE	SELECTOR	0	Electrode Type
STRIPPING	TOGGLE	F	Used for Stripping
POLARITY	TOGGLE	F	Signal Polarity
LINEFREQ	IQUANT	60	Line Frequency (Hz)
INTPERIOD	QUANT	3.3334E-005	Integration Period (s)
SEQUENCER	TOGGLE	TRUE	Run as Sequence
PSTATMODEL	IQUANT	4	Pstat Model
PSTATSECTION	LABEL	REF600-24079	Pstat Section
PSTATSERIALNO	LABEL	24079	Pstat Serial Number
CTRLMODE	IQUANT	1	Control Mode
ELECTROMETER	IQUANT	0	RE=0 or CS=1
IESTAB	IQUANT	2	I/E Stability
CASPEED	IQUANT	6	Control Amp Speed
CONVENTION	IQUANT	1	Current Convention
ICHRANGE	IQUANT	2	Ich Range
ICHRANGEMODE	TOGGLE	F	Ich Auto Range
ICHOFFSETENABLE	TOGGLE	F	Ich Offset Enable
ICHOFFSET	QUANT	0	Ich Offset (V)
ICHFILTER	IQUANT	2	Ich Filter
VCHRANGE	IQUANT	2	Vch Range
VCHRANGEMODE	TOGGLE	F	Vch Auto Range
VCHOFFSETENABLE	TOGGLE	F	Vch Offset Enable
VCHOFFSET	QUANT	0	Vch Offset (V)
VCHFILTER	IQUANT	2	Vch Filter
ACHRANGE	IQUANT	2	Ach Range
ACHOFFSETENABLE	TOGGLE	F	Ach Offset Enable
ACHOFFSET	QUANT	0	Ach Offset (V)
ACHFILTER	IQUANT	1	Ach Filter
IERANGELOWERLIMIT	IQUANT	1	I/E Range Lower Limit
IERANGEMODE	TOGGLE	F	I/E AutoRange
IERANGE	IQUANT	6	I/E Range
POSFEEDENABLE	TOGGLE	F	Positive Feedback IR Comp
POSFEEDRESISTANCE	QUANT	0	Positive Feedback Resistance (ohm)
ACHSELECT	IQUANT	0	Ach Select
SENSECABLEID	IQUANT	13	Sense Cable ID
PWRCABLEID	IQUANT	13	Power Cable ID
DCCALDATE	LABEL	6/30/2020	DC Calibration Date
ACCALDATE	LABEL	6/30/2020	AC Calibration Date
THERMOSELECT	IQUANT	1	Thermo Select
FRAMEWORKVERSION	LABEL	7.8.2	Framework Version
INSTRUMENTVERSION	LABEL	4.40	Instrument Version
CURVE	TABLE	101
	Pt	T	Vfwd	Vrev	Vstep	Ifwd	Irev	Idif	Sig	Ach	IERange	Over	Temp
	#	s	V	V	V	A	A	A	V	V	#	bits	deg C
	0	0.1	-3.24881E-001	-3.74895E-001	-3.49888E-001	-1.03460E-007	-2.03224E-007	9.97647E-008	-3.75000E-001	3.66706E-004	6	..........a	-327.68
	2	0.3	-3.20875E-001	-3.70767E-001	-3.45821E-001	-8.43341E-008	-1.90182E-007	1.05847E-007	-3.71000E-001	3.49539E-004	6	..........a	-327.68
	4	0.5	-3.16800E-001	-3.66935E-001	-3.41867E-001	-7.86824E-008	-1.81940E-007	1.03258E-007	-3.67000E-001	3.69206E-004	6	..........a	-327.68
	6	0.7	-3.12902E-001	-3.62848E-001	-3.37875E-001	-7.38788E-008	-1.74430E-007	1.00551E-007	-3.63000E-001	3.71206E-004	6	..........a	-327.68
	8	0.9	-3.08830E-001	-3.58887E-001	-3.33858E-001	-6.94809E-008	-1.67124E-007	9.76428E-008	-3.59000E-001	3.83873E-004	6	..........a	-327.68
	10	1.1	-3.04891E-001	-3.54848E-001	-3.29870E-001	-6.51560E-008	-1.60714E-007	9.55581E-008	-3.55000E-001	3.67706E-004	6	..........a	-327.68
	12	1.3	-3.00870E-001	-3.50889E-001	-3.25880E-001	-6.09888E-008	-1.53965E-007	9.29765E-008	-3.51000E-001	3.45373E-004	6	..........a	-327.68
	14	1.5	-2.96869E-001	-3.46873E-001	-3.21871E-001	-5.71530E-008	-1.48150E-007	9.09972E-008	-3.47000E-001	3.61539E-004	6	..........a	-327.68
	16	1.7	-2.92761E-001	-3.42914E-001	-3.17837E-001	-5.30292E-008	-1.42335E-007	8.93054E-008	-3.43000E-001	3.63706E-004	6	..........a	-327.68
	18	1.9	-2.88914E-001	-3.38864E-001	-3.13889E-001	-4.93610E-008	-1.36642E-007	8.72811E-008	-3.39000E-001	3.42873E-004	6	..........a	-327.68
	20	2.1	-2.84830E-001	-3.34889E-001	-3.09859E-001	-4.59366E-008	-1.31184E-007	8.52475E-008	-3.35000E-001	3.50873E-004	6	..........a	-327.68
	22	2.3	-2.80891E-001	-3.30834E-001	-3.05863E-001	-4.23111E-008	-1.26011E-007	8.36996E-008	-3.31000E-001	3.67539E-004	6	..........a	-327.68
	24	2.5	-2.76845E-001	-3.26893E-001	-3.01869E-001	-3.88067E-008	-1.21350E-007	8.25435E-008	-3.27000E-001	3.58373E-004	6	..........a	-327.68
	26	2.7	-2.72875E-001	-3.22874E-001	-2.97874E-001	-3.54373E-008	-1.16548E-007	8.11103E-008	-3.23000E-001	3.63706E-004	6	..........a	-327.68
	28	2.9	-2.68877E-001	-3.18945E-001	-2.93911E-001	-3.24172E-008	-1.12171E-007	7.97538E-008	-3.19000E-001	3.52373E-004	6	..........a	-327.68
	30	3.1	-2.64900E-001	-3.14905E-001	-2.89902E-001	-2.91511E-008	-1.07927E-007	7.87757E-008	-3.15000E-001	3.61539E-004	6	..........a	-327.68
	32	3.3	-2.60827E-001	-3.10899E-001	-2.85863E-001	-2.60681E-008	-1.03787E-007	7.77192E-008	-3.11000E-001	3.50873E-004	6	..........a	-327.68
	34	3.5	-2.56866E-001	-3.06863E-001	-2.81864E-001	-2.31557E-008	-1.00074E-007	7.69188E-008	-3.07000E-001	3.51373E-004	6	..........a	-327.68
	36	3.7	-2.52846E-001	-3.02914E-001	-2.77880E-001	-2.05080E-008	-9.66870E-008	7.61790E-008	-3.03000E-001	3.53206E-004	6	..........a	-327.68
	38	3.9	-2.48879E-001	-2.98877E-001	-2.73878E-001	-1.79117E-008	-9.31003E-008	7.51886E-008	-2.99000E-001	3.65373E-004	6	..........a	-327.68
	40	4.1	-2.44872E-001	-2.94890E-001	-2.69881E-001	-1.55351E-008	-8.97598E-008	7.42248E-008	-2.95000E-001	3.47539E-004	6	..........a	-327.68
	42	4.3	-2.40890E-001	-2.90837E-001	-2.65864E-001	-1.32891E-008	-8.69285E-008	7.36394E-008	-2.91000E-001	3.73539E-004	6	..........a	-327.68
	44	4.5	-2.36823E-001	-2.86904E-001	-2.61863E-001	-1.12542E-008	-8.38264E-008	7.25722E-008	-2.87000E-001	3.55039E-004	6	..........a	-327.68
	46	4.7	-2.32863E-001	-2.82852E-001	-2.57858E-001	-9.42428E-009	-8.06300E-008	7.12057E-008	-2.83000E-001	3.53373E-004	6	..........a	-327.68
	48	4.9	-2.28797E-001	-2.78902E-001	-2.53850E-001	-7.66006E-009	-7.75806E-008	6.99206E-008	-2.79000E-001	3.51539E-004	6	..........a	-327.68
	50	5.1	-2.24875E-001	-2.74873E-001	-2.49874E-001	-6.18154E-009	-7.47539E-008	6.85724E-008	-2.75000E-001	3.66039E-004	6	..........a	-327.68
	52	5.3	-2.20874E-001	-2.70863E-001	-2.45868E-001	-4.36797E-009	-7.19799E-008	6.76119E-008	-2.71000E-001	3.66873E-004	6	..........a	-327.68
	54	5.5	-2.16858E-001	-2.66829E-001	-2.41844E-001	-2.90912E-009	-6.93869E-008	6.64778E-008	-2.67000E-001	3.59039E-004	6	..........a	-327.68
	56	5.7	-2.12855E-001	-2.62890E-001	-2.37873E-001	-1.60729E-009	-6.65585E-008	6.49513E-008	-2.63000E-001	3.49706E-004	6	..........a	-327.68
	58	5.9	-2.08892E-001	-2.58850E-001	-2.33871E-001	-2.68451E-010	-6.38845E-008	6.36161E-008	-2.59000E-001	3.54373E-004	6	..........a	-327.68
	60	6.1	-2.04823E-001	-2.54900E-001	-2.29861E-001	8.94364E-010	-6.14792E-008	6.23736E-008	-2.55000E-001	3.61873E-004	6	..........a	-327.68
	62	6.3	-2.00881E-001	-2.50865E-001	-2.25873E-001	1.95183E-009	-5.91726E-008	6.11244E-008	-2.51000E-001	3.51206E-004	6	..........a	-327.68
	64	6.5	-1.96866E-001	-2.46866E-001	-2.21866E-001	3.37968E-009	-5.67623E-008	6.01420E-008	-2.47000E-001	3.54873E-004	6	..........a	-327.68
	66	6.7	-1.92887E-001	-2.42820E-001	-2.17853E-001	4.16011E-009	-5.41940E-008	5.83541E-008	-2.43000E-001	3.60706E-004	6	..........a	-327.68
	68	6.9	-1.88759E-001	-2.38908E-001	-2.13834E-001	5.15491E-009	-5.20394E-008	5.71943E-008	-2.39000E-001	3.40873E-004	6	..........a	-327.68
	70	7.1	-1.84891E-001	-2.34843E-001	-2.09867E-001	6.36339E-009	-5.01998E-008	5.65632E-008	-2.35000E-001	3.40206E-004	6	..........a	-327.68
	72	7.3	-1.80776E-001	-2.30874E-001	-2.05825E-001	7.11549E-009	-4.83522E-008	5.54677E-008	-2.31000E-001	3.62373E-004	6	..........a	-327.68
	74	7.5	-1.76843E-001	-2.26844E-001	-2.01843E-001	8.17362E-009	-4.66367E-008	5.48103E-008	-2.27000E-001	3.36373E-004	6	..........a	-327.68
	76	7.7	-1.72835E-001	-2.22881E-001	-1.97858E-001	9.05040E-009	-4.46564E-008	5.37068E-008	-2.23000E-001	3.47206E-004	6	..........a	-327.68
	78	7.9	-1.68870E-001	-2.18868E-001	-1.93869E-001	9.97252E-009	-4.30049E-008	5.29774E-008	-2.19000E-001	3.38206E-004	6	..........a	-327.68
	80	8.1	-1.64712E-001	-2.14919E-001	-1.89815E-001	1.10753E-008	-4.16357E-008	5.27110E-008	-2.15000E-001	3.47206E-004	6	..........a	-327.68
	82	8.3	-1.60896E-001	-2.10884E-001	-1.85890E-001	1.16324E-008	-4.02645E-008	5.18969E-008	-2.11000E-001	3.41039E-004	6	..........a	-327.68
	84	8.5	-1.56806E-001	-2.06898E-001	-1.81852E-001	1.27272E-008	-3.87127E-008	5.14399E-008	-2.07000E-001	3.29706E-004	6	..........a	-327.68
	86	8.7	-1.52869E-001	-2.02828E-001	-1.77848E-001	1.33199E-008	-3.76552E-008	5.09751E-008	-2.03000E-001	3.38206E-004	6	..........a	-327.68
	88	8.9	-1.48811E-001	-1.98892E-001	-1.73851E-001	1.42934E-008	-3.59957E-008	5.02891E-008	-1.99000E-001	3.35206E-004	6	..........a	-327.68
	90	9.1	-1.44862E-001	-1.94860E-001	-1.69861E-001	1.50792E-008	-3.49815E-008	5.00607E-008	-1.95000E-001	3.33873E-004	6	..........a	-327.68
	92	9.3	-1.40859E-001	-1.90917E-001	-1.65888E-001	1.55966E-008	-3.40624E-008	4.96590E-008	-1.91000E-001	3.30873E-004	6	..........a	-327.68
	94	9.5	-1.36857E-001	-1.86859E-001	-1.61858E-001	1.63967E-008	-3.29553E-008	4.93519E-008	-1.87000E-001	3.39206E-004	6	..........a	-327.68
	96	9.7	-1.32788E-001	-1.82887E-001	-1.57838E-001	1.70578E-008	-3.19205E-008	4.89782E-008	-1.83000E-001	3.49206E-004	6	..........a	-327.68
	98	9.9	-1.28864E-001	-1.78846E-001	-1.53855E-001	1.77972E-008	-3.12067E-008	4.90039E-008	-1.79000E-001	3.18873E-004	6	..........a	-327.68
	100	10.1	-1.24838E-001	-1.74891E-001	-1.49864E-001	1.84479E-008	-3.02649E-008	4.87129E-008	-1.75000E-001	3.31039E-004	6	..........a	-327.68