File: Sample Data/Concentration Curve Data/C-COM3/SWV_10Hz STD3 50  fgml 081020_#9.DTA
EXPLAIN
TAG	SQUARE_WAVE
TITLE	LABEL	Square Wave Voltammetry	Test Identifier
DATE	LABEL	8/10/2020	Date
TIME	LABEL	19:14:31	Time
NOTES	NOTES	1	Notes...
	 STD3 50  fg/mL 08102
PSTAT	PSTAT	REF600-24079	Potentiostat
VINIT	QUANT	-3.50000E-001	Initial E (V)
VFINAL	QUANT	-1.50000E-001	Final E (V)
STEPSIZE	QUANT	2.00000E+000	Step Size (mV)
TIMERRES	QUANT	3.33340E-005	&Timer Resolution
FREQUENCY	QUANT	1.00000E+001	Frequency (Hz)
PULSESIZE	QUANT	2.50000E+001	Pulse Size E (mV)
PULSEON	QUANT	1.00000E-001	Pulse &Time (s)
NOISEREJECT	TOGGLE	F	Noise Rejection
AREA	QUANT	2.00000E-002	Sample Area (cm^2)
IMODE	SELECTOR	1	I/E Range Mode
IRANGE	QUANT	1.00000E-003	Max Current (mA)
EQDELAY	IQUANT	10	Equil. Time (s)
IRCOMP	SELECTOR	0	IRComp
PFCOR	QUANT	5.00000E+001	PF Corr. (ohm)
CYCLES	IQUANT	101	C&ycles (#)
ELECTRODETYPE	SELECTOR	0	Electrode Type
STRIPPING	TOGGLE	F	Used for Stripping
POLARITY	TOGGLE	F	Signal Polarity
LINEFREQ	IQUANT	60	Line Frequency (Hz)
INTPERIOD	QUANT	3.3334E-005	Integration Period (s)
SEQUENCER	TOGGLE	TRUE	Run as Sequence
PSTATMODEL	IQUANT	4	Pstat Model
PSTATSECTION	LABEL	REF600-24079	Pstat Section
PSTATSERIALNO	LABEL	24079	Pstat Serial Number
CTRLMODE	IQUANT	1	Control Mode
ELECTROMETER	IQUANT	0	RE=0 or CS=1
IESTAB	IQUANT	2	I/E Stability
CASPEED	IQUANT	6	Control Amp Speed
CONVENTION	IQUANT	1	Current Convention
ICHRANGE	IQUANT	2	Ich Range
ICHRANGEMODE	TOGGLE	F	Ich Auto Range
ICHOFFSETENABLE	TOGGLE	F	Ich Offset Enable
ICHOFFSET	QUANT	0	Ich Offset (V)
ICHFILTER	IQUANT	2	Ich Filter
VCHRANGE	IQUANT	2	Vch Range
VCHRANGEMODE	TOGGLE	F	Vch Auto Range
VCHOFFSETENABLE	TOGGLE	F	Vch Offset Enable
VCHOFFSET	QUANT	0	Vch Offset (V)
VCHFILTER	IQUANT	2	Vch Filter
ACHRANGE	IQUANT	2	Ach Range
ACHOFFSETENABLE	TOGGLE	F	Ach Offset Enable
ACHOFFSET	QUANT	0	Ach Offset (V)
ACHFILTER	IQUANT	1	Ach Filter
IERANGELOWERLIMIT	IQUANT	1	I/E Range Lower Limit
IERANGEMODE	TOGGLE	F	I/E AutoRange
IERANGE	IQUANT	6	I/E Range
POSFEEDENABLE	TOGGLE	F	Positive Feedback IR Comp
POSFEEDRESISTANCE	QUANT	0	Positive Feedback Resistance (ohm)
ACHSELECT	IQUANT	0	Ach Select
SENSECABLEID	IQUANT	13	Sense Cable ID
PWRCABLEID	IQUANT	13	Power Cable ID
DCCALDATE	LABEL	6/30/2020	DC Calibration Date
ACCALDATE	LABEL	6/30/2020	AC Calibration Date
THERMOSELECT	IQUANT	1	Thermo Select
FRAMEWORKVERSION	LABEL	7.8.2	Framework Version
INSTRUMENTVERSION	LABEL	4.40	Instrument Version
CURVE	TABLE	101
	Pt	T	Vfwd	Vrev	Vstep	Ifwd	Irev	Idif	Sig	Ach	IERange	Over	Temp
	#	s	V	V	V	A	A	A	V	V	#	bits	deg C
	0	0.1	-3.24899E-001	-3.74920E-001	-3.49909E-001	-1.02385E-007	-2.00009E-007	9.76234E-008	-3.75000E-001	3.85539E-004	6	..........a	-327.68
	2	0.3	-3.20895E-001	-3.70800E-001	-3.45848E-001	-8.37907E-008	-1.87437E-007	1.03646E-007	-3.71000E-001	3.67373E-004	6	..........a	-327.68
	4	0.5	-3.16826E-001	-3.66949E-001	-3.41888E-001	-7.81877E-008	-1.79522E-007	1.01335E-007	-3.67000E-001	3.63539E-004	6	..........a	-327.68
	6	0.7	-3.12920E-001	-3.62843E-001	-3.37882E-001	-7.35911E-008	-1.72576E-007	9.89849E-008	-3.63000E-001	3.85706E-004	6	..........a	-327.68
	8	0.9	-3.08868E-001	-3.58906E-001	-3.33887E-001	-6.92669E-008	-1.65787E-007	9.65203E-008	-3.59000E-001	3.87539E-004	6	..........a	-327.68
	10	1.1	-3.04924E-001	-3.54855E-001	-3.29890E-001	-6.55164E-008	-1.59415E-007	9.38989E-008	-3.55000E-001	3.97206E-004	6	..........a	-327.68
	12	1.3	-3.00909E-001	-3.50903E-001	-3.25906E-001	-6.13292E-008	-1.53075E-007	9.17457E-008	-3.51000E-001	3.75373E-004	6	..........a	-327.68
	14	1.5	-2.96895E-001	-3.46902E-001	-3.21898E-001	-5.76138E-008	-1.47199E-007	8.95851E-008	-3.47000E-001	3.79706E-004	6	..........a	-327.68
	16	1.7	-2.92807E-001	-3.42936E-001	-3.17872E-001	-5.37643E-008	-1.41253E-007	8.74885E-008	-3.43000E-001	3.78873E-004	6	..........a	-327.68
	18	1.9	-2.88927E-001	-3.38876E-001	-3.13901E-001	-5.00808E-008	-1.35758E-007	8.56772E-008	-3.39000E-001	3.72873E-004	6	..........a	-327.68
	20	2.1	-2.84884E-001	-3.34908E-001	-3.09896E-001	-4.67150E-008	-1.30458E-007	8.37426E-008	-3.35000E-001	3.73373E-004	6	..........a	-327.68
	22	2.3	-2.80945E-001	-3.30850E-001	-3.05898E-001	-4.33943E-008	-1.25180E-007	8.17861E-008	-3.31000E-001	3.88206E-004	6	..........a	-327.68
	24	2.5	-2.76905E-001	-3.26909E-001	-3.01907E-001	-4.00455E-008	-1.20320E-007	8.02749E-008	-3.27000E-001	3.61039E-004	6	..........a	-327.68
	26	2.7	-2.72906E-001	-3.22881E-001	-2.97893E-001	-3.67658E-008	-1.15676E-007	7.89100E-008	-3.23000E-001	3.63373E-004	6	..........a	-327.68
	28	2.9	-2.68905E-001	-3.18930E-001	-2.93918E-001	-3.34897E-008	-1.11037E-007	7.75469E-008	-3.19000E-001	3.76039E-004	6	..........a	-327.68
	30	3.1	-2.64936E-001	-3.14908E-001	-2.89922E-001	-3.07507E-008	-1.06602E-007	7.58510E-008	-3.15000E-001	3.81873E-004	6	..........a	-327.68
	32	3.3	-2.60850E-001	-3.10912E-001	-2.85881E-001	-2.76913E-008	-1.02334E-007	7.46432E-008	-3.11000E-001	3.93039E-004	6	..........a	-327.68
	34	3.5	-2.56900E-001	-3.06868E-001	-2.81884E-001	-2.50056E-008	-9.85243E-008	7.35187E-008	-3.07000E-001	3.51373E-004	6	..........a	-327.68
	36	3.7	-2.52904E-001	-3.02938E-001	-2.77921E-001	-2.25646E-008	-9.49628E-008	7.23982E-008	-3.03000E-001	3.66706E-004	6	..........a	-327.68
	38	3.9	-2.48921E-001	-2.98882E-001	-2.73901E-001	-2.00290E-008	-9.12697E-008	7.12407E-008	-2.99000E-001	3.71373E-004	6	..........a	-327.68
	40	4.1	-2.44905E-001	-2.94919E-001	-2.69912E-001	-1.77997E-008	-8.75549E-008	6.97552E-008	-2.95000E-001	3.59373E-004	6	..........a	-327.68
	42	4.3	-2.40928E-001	-2.90851E-001	-2.65889E-001	-1.53444E-008	-8.43355E-008	6.89911E-008	-2.91000E-001	3.81873E-004	6	..........a	-327.68
	44	4.5	-2.36893E-001	-2.86916E-001	-2.61905E-001	-1.32018E-008	-8.12414E-008	6.80397E-008	-2.87000E-001	3.75039E-004	6	..........a	-327.68
	46	4.7	-2.32893E-001	-2.82846E-001	-2.57869E-001	-1.13349E-008	-7.80627E-008	6.67278E-008	-2.83000E-001	3.73706E-004	6	..........a	-327.68
	48	4.9	-2.28815E-001	-2.78913E-001	-2.53864E-001	-9.51396E-009	-7.51326E-008	6.56187E-008	-2.79000E-001	3.77539E-004	6	..........a	-327.68
	50	5.1	-2.24911E-001	-2.74887E-001	-2.49899E-001	-7.80308E-009	-7.23586E-008	6.45556E-008	-2.75000E-001	3.82706E-004	6	..........a	-327.68
	52	5.3	-2.20895E-001	-2.70883E-001	-2.45889E-001	-5.93984E-009	-6.95629E-008	6.36231E-008	-2.71000E-001	3.83706E-004	6	..........a	-327.68
	54	5.5	-2.16923E-001	-2.66805E-001	-2.41864E-001	-4.44265E-009	-6.66839E-008	6.22413E-008	-2.67000E-001	3.65539E-004	6	..........a	-327.68
	56	5.7	-2.12901E-001	-2.62889E-001	-2.37895E-001	-2.96679E-009	-6.40022E-008	6.10354E-008	-2.63000E-001	3.86206E-004	6	..........a	-327.68
	58	5.9	-2.08893E-001	-2.58844E-001	-2.33869E-001	-1.46827E-009	-6.17663E-008	6.02980E-008	-2.59000E-001	3.67373E-004	6	..........a	-327.68
	60	6.1	-2.04870E-001	-2.54905E-001	-2.29887E-001	-2.57449E-010	-5.92790E-008	5.90215E-008	-2.55000E-001	3.80873E-004	6	..........a	-327.68
	62	6.3	-2.00912E-001	-2.50871E-001	-2.25892E-001	1.05572E-009	-5.68303E-008	5.78860E-008	-2.51000E-001	3.50873E-004	6	..........a	-327.68
	64	6.5	-1.96904E-001	-2.46869E-001	-2.21886E-001	2.40256E-009	-5.44717E-008	5.68742E-008	-2.47000E-001	3.79706E-004	6	..........a	-327.68
	66	6.7	-1.92907E-001	-2.42806E-001	-2.17857E-001	3.40835E-009	-5.25244E-008	5.59328E-008	-2.43000E-001	3.77706E-004	6	..........a	-327.68
	68	6.9	-1.88796E-001	-2.38911E-001	-2.13854E-001	4.54549E-009	-5.05619E-008	5.51073E-008	-2.39000E-001	3.63373E-004	6	..........a	-327.68
	70	7.1	-1.84929E-001	-2.34841E-001	-2.09885E-001	5.47495E-009	-4.86316E-008	5.41066E-008	-2.35000E-001	3.63873E-004	6	..........a	-327.68
	72	7.3	-1.80833E-001	-2.30905E-001	-2.05869E-001	6.36606E-009	-4.69114E-008	5.32774E-008	-2.31000E-001	3.61539E-004	6	..........a	-327.68
	74	7.5	-1.76876E-001	-2.26852E-001	-2.01864E-001	7.57855E-009	-4.51575E-008	5.27360E-008	-2.27000E-001	3.75039E-004	6	..........a	-327.68
	76	7.7	-1.72882E-001	-2.22905E-001	-1.97894E-001	8.39832E-009	-4.34176E-008	5.18159E-008	-2.23000E-001	3.70873E-004	6	..........a	-327.68
	78	7.9	-1.68902E-001	-2.18880E-001	-1.93891E-001	9.35344E-009	-4.17684E-008	5.11218E-008	-2.19000E-001	3.54873E-004	6	..........a	-327.68
	80	8.1	-1.64743E-001	-2.14904E-001	-1.89824E-001	1.01699E-008	-4.02245E-008	5.03944E-008	-2.15000E-001	3.51539E-004	6	..........a	-327.68
	82	8.3	-1.60932E-001	-2.10864E-001	-1.85898E-001	1.12303E-008	-3.87207E-008	4.99510E-008	-2.11000E-001	3.60206E-004	6	..........a	-327.68
	84	8.5	-1.56837E-001	-2.06919E-001	-1.81878E-001	1.19588E-008	-3.74058E-008	4.93646E-008	-2.07000E-001	3.48373E-004	6	..........a	-327.68
	86	8.7	-1.52909E-001	-2.02845E-001	-1.77877E-001	1.27282E-008	-3.63890E-008	4.91172E-008	-2.03000E-001	3.61873E-004	6	..........a	-327.68
	88	8.9	-1.48878E-001	-1.98923E-001	-1.73900E-001	1.35283E-008	-3.49669E-008	4.84952E-008	-1.99000E-001	3.52373E-004	6	..........a	-327.68
	90	9.1	-1.44895E-001	-1.94877E-001	-1.69886E-001	1.42437E-008	-3.41284E-008	4.83722E-008	-1.95000E-001	3.52206E-004	6	..........a	-327.68
	92	9.3	-1.40903E-001	-1.90947E-001	-1.65925E-001	1.50075E-008	-3.30200E-008	4.80274E-008	-1.91000E-001	3.56373E-004	6	..........a	-327.68
	94	9.5	-1.36907E-001	-1.86852E-001	-1.61879E-001	1.58349E-008	-3.17511E-008	4.75861E-008	-1.87000E-001	3.62539E-004	6	..........a	-327.68
	96	9.7	-1.32793E-001	-1.82900E-001	-1.57847E-001	1.64290E-008	-3.09987E-008	4.74277E-008	-1.83000E-001	3.51039E-004	6	..........a	-327.68
	98	9.9	-1.28862E-001	-1.78840E-001	-1.53851E-001	1.71988E-008	-3.02743E-008	4.74730E-008	-1.79000E-001	3.46539E-004	6	..........a	-327.68
	100	10.1	-1.24873E-001	-1.74919E-001	-1.49896E-001	1.76508E-008	-2.92451E-008	4.68960E-008	-1.75000E-001	3.42039E-004	6	..........a	-327.68