File: Sample Data/Concentration Curve Data/C-COM3/SWV_10Hz STD3 100  fgml 081020_#8.DTA
EXPLAIN
TAG	SQUARE_WAVE
TITLE	LABEL	Square Wave Voltammetry	Test Identifier
DATE	LABEL	8/10/2020	Date
TIME	LABEL	20:26:27	Time
NOTES	NOTES	1	Notes...
	 STD3 100  fg/mL 08102
PSTAT	PSTAT	REF600-24079	Potentiostat
VINIT	QUANT	-3.50000E-001	Initial E (V)
VFINAL	QUANT	-1.50000E-001	Final E (V)
STEPSIZE	QUANT	2.00000E+000	Step Size (mV)
TIMERRES	QUANT	3.33340E-005	&Timer Resolution
FREQUENCY	QUANT	1.00000E+001	Frequency (Hz)
PULSESIZE	QUANT	2.50000E+001	Pulse Size E (mV)
PULSEON	QUANT	1.00000E-001	Pulse &Time (s)
NOISEREJECT	TOGGLE	F	Noise Rejection
AREA	QUANT	2.00000E-002	Sample Area (cm^2)
IMODE	SELECTOR	1	I/E Range Mode
IRANGE	QUANT	1.00000E-003	Max Current (mA)
EQDELAY	IQUANT	10	Equil. Time (s)
IRCOMP	SELECTOR	0	IRComp
PFCOR	QUANT	5.00000E+001	PF Corr. (ohm)
CYCLES	IQUANT	101	C&ycles (#)
ELECTRODETYPE	SELECTOR	0	Electrode Type
STRIPPING	TOGGLE	F	Used for Stripping
POLARITY	TOGGLE	F	Signal Polarity
LINEFREQ	IQUANT	60	Line Frequency (Hz)
INTPERIOD	QUANT	3.3334E-005	Integration Period (s)
SEQUENCER	TOGGLE	TRUE	Run as Sequence
PSTATMODEL	IQUANT	4	Pstat Model
PSTATSECTION	LABEL	REF600-24079	Pstat Section
PSTATSERIALNO	LABEL	24079	Pstat Serial Number
CTRLMODE	IQUANT	1	Control Mode
ELECTROMETER	IQUANT	0	RE=0 or CS=1
IESTAB	IQUANT	2	I/E Stability
CASPEED	IQUANT	6	Control Amp Speed
CONVENTION	IQUANT	1	Current Convention
ICHRANGE	IQUANT	2	Ich Range
ICHRANGEMODE	TOGGLE	F	Ich Auto Range
ICHOFFSETENABLE	TOGGLE	F	Ich Offset Enable
ICHOFFSET	QUANT	0	Ich Offset (V)
ICHFILTER	IQUANT	2	Ich Filter
VCHRANGE	IQUANT	2	Vch Range
VCHRANGEMODE	TOGGLE	F	Vch Auto Range
VCHOFFSETENABLE	TOGGLE	F	Vch Offset Enable
VCHOFFSET	QUANT	0	Vch Offset (V)
VCHFILTER	IQUANT	2	Vch Filter
ACHRANGE	IQUANT	2	Ach Range
ACHOFFSETENABLE	TOGGLE	F	Ach Offset Enable
ACHOFFSET	QUANT	0	Ach Offset (V)
ACHFILTER	IQUANT	1	Ach Filter
IERANGELOWERLIMIT	IQUANT	1	I/E Range Lower Limit
IERANGEMODE	TOGGLE	F	I/E AutoRange
IERANGE	IQUANT	6	I/E Range
POSFEEDENABLE	TOGGLE	F	Positive Feedback IR Comp
POSFEEDRESISTANCE	QUANT	0	Positive Feedback Resistance (ohm)
ACHSELECT	IQUANT	0	Ach Select
SENSECABLEID	IQUANT	13	Sense Cable ID
PWRCABLEID	IQUANT	13	Power Cable ID
DCCALDATE	LABEL	6/30/2020	DC Calibration Date
ACCALDATE	LABEL	6/30/2020	AC Calibration Date
THERMOSELECT	IQUANT	1	Thermo Select
FRAMEWORKVERSION	LABEL	7.8.2	Framework Version
INSTRUMENTVERSION	LABEL	4.40	Instrument Version
CURVE	TABLE	101
	Pt	T	Vfwd	Vrev	Vstep	Ifwd	Irev	Idif	Sig	Ach	IERange	Over	Temp
	#	s	V	V	V	A	A	A	V	V	#	bits	deg C
	0	0.1	-3.24893E-001	-3.74907E-001	-3.49900E-001	-1.04839E-007	-2.10109E-007	1.05270E-007	-3.75000E-001	4.02539E-004	6	..........a	-327.68
	2	0.3	-3.20904E-001	-3.70773E-001	-3.45838E-001	-8.54746E-008	-1.96928E-007	1.11454E-007	-3.71000E-001	3.94539E-004	6	..........a	-327.68
	4	0.5	-3.16853E-001	-3.66962E-001	-3.41907E-001	-7.94822E-008	-1.88159E-007	1.08677E-007	-3.67000E-001	3.94873E-004	6	..........a	-327.68
	6	0.7	-3.12906E-001	-3.62817E-001	-3.37861E-001	-7.45379E-008	-1.80015E-007	1.05477E-007	-3.63000E-001	4.03706E-004	6	..........a	-327.68
	8	0.9	-3.08880E-001	-3.58899E-001	-3.33890E-001	-7.01117E-008	-1.72578E-007	1.02467E-007	-3.59000E-001	4.25373E-004	6	..........a	-327.68
	10	1.1	-3.04912E-001	-3.54843E-001	-3.29877E-001	-6.57805E-008	-1.65412E-007	9.96320E-008	-3.55000E-001	4.09373E-004	6	..........a	-327.68
	12	1.3	-3.00890E-001	-3.50897E-001	-3.25894E-001	-6.14669E-008	-1.58615E-007	9.71480E-008	-3.51000E-001	4.19039E-004	6	..........a	-327.68
	14	1.5	-2.96890E-001	-3.46898E-001	-3.21894E-001	-5.73684E-008	-1.51851E-007	9.44830E-008	-3.47000E-001	3.90873E-004	6	..........a	-327.68
	16	1.7	-2.92798E-001	-3.42915E-001	-3.17857E-001	-5.32599E-008	-1.45588E-007	9.23281E-008	-3.43000E-001	3.99539E-004	6	..........a	-327.68
	18	1.9	-2.88922E-001	-3.38839E-001	-3.13881E-001	-4.92290E-008	-1.39493E-007	9.02641E-008	-3.39000E-001	3.88539E-004	6	..........a	-327.68
	20	2.1	-2.84851E-001	-3.34897E-001	-3.09874E-001	-4.59009E-008	-1.33436E-007	8.75351E-008	-3.35000E-001	3.90039E-004	6	..........a	-327.68
	22	2.3	-2.80908E-001	-3.30819E-001	-3.05863E-001	-4.24525E-008	-1.27857E-007	8.54042E-008	-3.31000E-001	4.01039E-004	6	..........a	-327.68
	24	2.5	-2.76887E-001	-3.26913E-001	-3.01900E-001	-3.89170E-008	-1.22424E-007	8.35070E-008	-3.27000E-001	3.83206E-004	6	..........a	-327.68
	26	2.7	-2.72890E-001	-3.22875E-001	-2.97882E-001	-3.55363E-008	-1.17496E-007	8.19598E-008	-3.23000E-001	3.98039E-004	6	..........a	-327.68
	28	2.9	-2.68902E-001	-3.18935E-001	-2.93918E-001	-3.22705E-008	-1.12256E-007	7.99855E-008	-3.19000E-001	4.00039E-004	6	..........a	-327.68
	30	3.1	-2.64904E-001	-3.14896E-001	-2.89900E-001	-2.91438E-008	-1.07479E-007	7.83350E-008	-3.15000E-001	3.96539E-004	6	..........a	-327.68
	32	3.3	-2.60838E-001	-3.10904E-001	-2.85871E-001	-2.61221E-008	-1.02972E-007	7.68501E-008	-3.11000E-001	3.98039E-004	6	..........a	-327.68
	34	3.5	-2.56876E-001	-3.06843E-001	-2.81859E-001	-2.32240E-008	-9.89657E-008	7.57416E-008	-3.07000E-001	4.05539E-004	6	..........a	-327.68
	36	3.7	-2.52885E-001	-3.02934E-001	-2.77910E-001	-2.07037E-008	-9.47628E-008	7.40591E-008	-3.03000E-001	4.12373E-004	6	..........a	-327.68
	38	3.9	-2.48907E-001	-2.98871E-001	-2.73889E-001	-1.81011E-008	-9.07543E-008	7.26532E-008	-2.99000E-001	4.03206E-004	6	..........a	-327.68
	40	4.1	-2.44901E-001	-2.94911E-001	-2.69906E-001	-1.56267E-008	-8.70838E-008	7.14571E-008	-2.95000E-001	4.05873E-004	6	..........a	-327.68
	42	4.3	-2.40895E-001	-2.90820E-001	-2.65858E-001	-1.35001E-008	-8.36124E-008	7.01123E-008	-2.91000E-001	4.01873E-004	6	..........a	-327.68
	44	4.5	-2.36875E-001	-2.86901E-001	-2.61888E-001	-1.12929E-008	-8.01650E-008	6.88721E-008	-2.87000E-001	4.10206E-004	6	..........a	-327.68
	46	4.7	-2.32872E-001	-2.82827E-001	-2.57849E-001	-9.40195E-009	-7.66592E-008	6.72572E-008	-2.83000E-001	4.10873E-004	6	..........a	-327.68
	48	4.9	-2.28824E-001	-2.78898E-001	-2.53861E-001	-7.41269E-009	-7.36771E-008	6.62644E-008	-2.79000E-001	4.28373E-004	6	..........a	-327.68
	50	5.1	-2.24899E-001	-2.74863E-001	-2.49881E-001	-5.69881E-009	-7.07411E-008	6.50423E-008	-2.75000E-001	4.23206E-004	6	..........a	-327.68
	52	5.3	-2.20889E-001	-2.70882E-001	-2.45886E-001	-3.81824E-009	-6.75567E-008	6.37384E-008	-2.71000E-001	4.15539E-004	6	..........a	-327.68
	54	5.5	-2.16881E-001	-2.66791E-001	-2.41836E-001	-2.14536E-009	-6.48423E-008	6.26970E-008	-2.67000E-001	3.98039E-004	6	..........a	-327.68
	56	5.7	-2.12900E-001	-2.62888E-001	-2.37894E-001	-7.77182E-010	-6.21543E-008	6.13771E-008	-2.63000E-001	4.07373E-004	6	..........a	-327.68
	58	5.9	-2.08879E-001	-2.58829E-001	-2.33854E-001	6.36998E-010	-5.92986E-008	5.99356E-008	-2.59000E-001	4.00539E-004	6	..........a	-327.68
	60	6.1	-2.04853E-001	-2.54906E-001	-2.29880E-001	1.98284E-009	-5.68997E-008	5.88825E-008	-2.55000E-001	4.12539E-004	6	..........a	-327.68
	62	6.3	-2.00907E-001	-2.50860E-001	-2.25884E-001	3.13398E-009	-5.44007E-008	5.75347E-008	-2.51000E-001	3.95706E-004	6	..........a	-327.68
	64	6.5	-1.96900E-001	-2.46892E-001	-2.21896E-001	4.18478E-009	-5.19040E-008	5.60888E-008	-2.47000E-001	3.86873E-004	6	..........a	-327.68
	66	6.7	-1.92916E-001	-2.42783E-001	-2.17849E-001	5.26892E-009	-5.00478E-008	5.53167E-008	-2.43000E-001	4.06706E-004	6	..........a	-327.68
	68	6.9	-1.88799E-001	-2.38931E-001	-2.13865E-001	6.50841E-009	-4.80122E-008	5.45206E-008	-2.39000E-001	3.86206E-004	6	..........a	-327.68
	70	7.1	-1.84910E-001	-2.34821E-001	-2.09865E-001	7.41453E-009	-4.62970E-008	5.37115E-008	-2.35000E-001	3.78539E-004	6	..........a	-327.68
	72	7.3	-1.80807E-001	-2.30887E-001	-2.05847E-001	8.38932E-009	-4.40354E-008	5.24247E-008	-2.31000E-001	3.87706E-004	6	..........a	-327.68
	74	7.5	-1.76872E-001	-2.26838E-001	-2.01855E-001	9.56413E-009	-4.24728E-008	5.20370E-008	-2.27000E-001	3.84539E-004	6	..........a	-327.68
	76	7.7	-1.72862E-001	-2.22896E-001	-1.97879E-001	1.03882E-008	-4.07806E-008	5.11688E-008	-2.23000E-001	3.90539E-004	6	..........a	-327.68
	78	7.9	-1.68887E-001	-2.18875E-001	-1.93881E-001	1.13310E-008	-3.90577E-008	5.03887E-008	-2.19000E-001	3.79039E-004	6	..........a	-327.68
	80	8.1	-1.64740E-001	-2.14940E-001	-1.89840E-001	1.19794E-008	-3.77049E-008	4.96843E-008	-2.15000E-001	4.06706E-004	6	..........a	-327.68
	82	8.3	-1.60919E-001	-2.10870E-001	-1.85894E-001	1.30642E-008	-3.63664E-008	4.94306E-008	-2.11000E-001	3.81206E-004	6	..........a	-327.68
	84	8.5	-1.56805E-001	-2.06902E-001	-1.81853E-001	1.39877E-008	-3.49989E-008	4.89866E-008	-2.07000E-001	3.84206E-004	6	..........a	-327.68
	86	8.7	-1.52890E-001	-2.02833E-001	-1.77861E-001	1.47185E-008	-3.36444E-008	4.83628E-008	-2.03000E-001	3.69539E-004	6	..........a	-327.68
	88	8.9	-1.48863E-001	-1.98914E-001	-1.73889E-001	1.53585E-008	-3.24902E-008	4.78488E-008	-1.99000E-001	3.77873E-004	6	..........a	-327.68
	90	9.1	-1.44884E-001	-1.94874E-001	-1.69879E-001	1.60163E-008	-3.12207E-008	4.72370E-008	-1.95000E-001	3.82039E-004	6	..........a	-327.68
	92	9.3	-1.40889E-001	-1.90919E-001	-1.65904E-001	1.67140E-008	-3.05616E-008	4.72757E-008	-1.91000E-001	3.79539E-004	6	..........a	-327.68
	94	9.5	-1.36873E-001	-1.86835E-001	-1.61854E-001	1.73875E-008	-2.94122E-008	4.67996E-008	-1.87000E-001	3.81873E-004	6	..........a	-327.68
	96	9.7	-1.32801E-001	-1.82885E-001	-1.57843E-001	1.81306E-008	-2.83837E-008	4.65142E-008	-1.83000E-001	3.79706E-004	6	..........a	-327.68
	98	9.9	-1.28859E-001	-1.78816E-001	-1.53838E-001	1.87080E-008	-2.77059E-008	4.64139E-008	-1.79000E-001	3.82539E-004	6	..........a	-327.68
	100	10.1	-1.24861E-001	-1.74906E-001	-1.49884E-001	1.92857E-008	-2.69045E-008	4.61902E-008	-1.75000E-001	3.81039E-004	6	..........a	-327.68