File: Sample Data/Concentration Curve Data/C-COM3/SWV_10Hz STD3 100  fgml 081020_#10.DTA
EXPLAIN
TAG	SQUARE_WAVE
TITLE	LABEL	Square Wave Voltammetry	Test Identifier
DATE	LABEL	8/10/2020	Date
TIME	LABEL	20:27:07	Time
NOTES	NOTES	1	Notes...
	 STD3 100  fg/mL 08102
PSTAT	PSTAT	REF600-24079	Potentiostat
VINIT	QUANT	-3.50000E-001	Initial E (V)
VFINAL	QUANT	-1.50000E-001	Final E (V)
STEPSIZE	QUANT	2.00000E+000	Step Size (mV)
TIMERRES	QUANT	3.33340E-005	&Timer Resolution
FREQUENCY	QUANT	1.00000E+001	Frequency (Hz)
PULSESIZE	QUANT	2.50000E+001	Pulse Size E (mV)
PULSEON	QUANT	1.00000E-001	Pulse &Time (s)
NOISEREJECT	TOGGLE	F	Noise Rejection
AREA	QUANT	2.00000E-002	Sample Area (cm^2)
IMODE	SELECTOR	1	I/E Range Mode
IRANGE	QUANT	1.00000E-003	Max Current (mA)
EQDELAY	IQUANT	10	Equil. Time (s)
IRCOMP	SELECTOR	0	IRComp
PFCOR	QUANT	5.00000E+001	PF Corr. (ohm)
CYCLES	IQUANT	101	C&ycles (#)
ELECTRODETYPE	SELECTOR	0	Electrode Type
STRIPPING	TOGGLE	F	Used for Stripping
POLARITY	TOGGLE	F	Signal Polarity
LINEFREQ	IQUANT	60	Line Frequency (Hz)
INTPERIOD	QUANT	3.3334E-005	Integration Period (s)
SEQUENCER	TOGGLE	TRUE	Run as Sequence
PSTATMODEL	IQUANT	4	Pstat Model
PSTATSECTION	LABEL	REF600-24079	Pstat Section
PSTATSERIALNO	LABEL	24079	Pstat Serial Number
CTRLMODE	IQUANT	1	Control Mode
ELECTROMETER	IQUANT	0	RE=0 or CS=1
IESTAB	IQUANT	2	I/E Stability
CASPEED	IQUANT	6	Control Amp Speed
CONVENTION	IQUANT	1	Current Convention
ICHRANGE	IQUANT	2	Ich Range
ICHRANGEMODE	TOGGLE	F	Ich Auto Range
ICHOFFSETENABLE	TOGGLE	F	Ich Offset Enable
ICHOFFSET	QUANT	0	Ich Offset (V)
ICHFILTER	IQUANT	2	Ich Filter
VCHRANGE	IQUANT	2	Vch Range
VCHRANGEMODE	TOGGLE	F	Vch Auto Range
VCHOFFSETENABLE	TOGGLE	F	Vch Offset Enable
VCHOFFSET	QUANT	0	Vch Offset (V)
VCHFILTER	IQUANT	2	Vch Filter
ACHRANGE	IQUANT	2	Ach Range
ACHOFFSETENABLE	TOGGLE	F	Ach Offset Enable
ACHOFFSET	QUANT	0	Ach Offset (V)
ACHFILTER	IQUANT	1	Ach Filter
IERANGELOWERLIMIT	IQUANT	1	I/E Range Lower Limit
IERANGEMODE	TOGGLE	F	I/E AutoRange
IERANGE	IQUANT	6	I/E Range
POSFEEDENABLE	TOGGLE	F	Positive Feedback IR Comp
POSFEEDRESISTANCE	QUANT	0	Positive Feedback Resistance (ohm)
ACHSELECT	IQUANT	0	Ach Select
SENSECABLEID	IQUANT	13	Sense Cable ID
PWRCABLEID	IQUANT	13	Power Cable ID
DCCALDATE	LABEL	6/30/2020	DC Calibration Date
ACCALDATE	LABEL	6/30/2020	AC Calibration Date
THERMOSELECT	IQUANT	1	Thermo Select
FRAMEWORKVERSION	LABEL	7.8.2	Framework Version
INSTRUMENTVERSION	LABEL	4.40	Instrument Version
CURVE	TABLE	101
	Pt	T	Vfwd	Vrev	Vstep	Ifwd	Irev	Idif	Sig	Ach	IERange	Over	Temp
	#	s	V	V	V	A	A	A	V	V	#	bits	deg C
	0	0.1	-3.24906E-001	-3.74910E-001	-3.49908E-001	-1.05765E-007	-2.11138E-007	1.05373E-007	-3.75000E-001	3.86706E-004	6	..........a	-327.68
	2	0.3	-3.20901E-001	-3.70777E-001	-3.45839E-001	-8.66918E-008	-1.98346E-007	1.11654E-007	-3.71000E-001	3.63039E-004	6	..........a	-327.68
	4	0.5	-3.16889E-001	-3.66955E-001	-3.41922E-001	-8.08624E-008	-1.89415E-007	1.08552E-007	-3.67000E-001	4.00873E-004	6	..........a	-327.68
	6	0.7	-3.12922E-001	-3.62819E-001	-3.37871E-001	-7.58727E-008	-1.81165E-007	1.05292E-007	-3.63000E-001	3.87706E-004	6	..........a	-327.68
	8	0.9	-3.08898E-001	-3.58904E-001	-3.33901E-001	-7.13722E-008	-1.74095E-007	1.02723E-007	-3.59000E-001	4.10539E-004	6	..........a	-327.68
	10	1.1	-3.04932E-001	-3.54840E-001	-3.29886E-001	-6.71130E-008	-1.66615E-007	9.95023E-008	-3.55000E-001	3.88206E-004	6	..........a	-327.68
	12	1.3	-3.00902E-001	-3.50897E-001	-3.25899E-001	-6.25374E-008	-1.59858E-007	9.73207E-008	-3.51000E-001	4.01039E-004	6	..........a	-327.68
	14	1.5	-2.96888E-001	-3.46897E-001	-3.21892E-001	-5.87676E-008	-1.53331E-007	9.45630E-008	-3.47000E-001	4.11039E-004	6	..........a	-327.68
	16	1.7	-2.92844E-001	-3.42904E-001	-3.17874E-001	-5.45530E-008	-1.46941E-007	9.23881E-008	-3.43000E-001	3.84039E-004	6	..........a	-327.68
	18	1.9	-2.88950E-001	-3.38835E-001	-3.13893E-001	-5.06122E-008	-1.40893E-007	9.02808E-008	-3.39000E-001	3.92206E-004	6	..........a	-327.68
	20	2.1	-2.84878E-001	-3.34897E-001	-3.09887E-001	-4.70961E-008	-1.35011E-007	8.79148E-008	-3.35000E-001	3.90539E-004	6	..........a	-327.68
	22	2.3	-2.80952E-001	-3.30822E-001	-3.05887E-001	-4.36153E-008	-1.29030E-007	8.54142E-008	-3.31000E-001	3.80373E-004	6	..........a	-327.68
	24	2.5	-2.76884E-001	-3.26921E-001	-3.01902E-001	-4.00878E-008	-1.23919E-007	8.38313E-008	-3.27000E-001	3.83539E-004	6	..........a	-327.68
	26	2.7	-2.72909E-001	-3.22883E-001	-2.97896E-001	-3.67148E-008	-1.18724E-007	8.20088E-008	-3.23000E-001	3.86039E-004	6	..........a	-327.68
	28	2.9	-2.68895E-001	-3.18935E-001	-2.93915E-001	-3.33250E-008	-1.13835E-007	8.05099E-008	-3.19000E-001	3.91539E-004	6	..........a	-327.68
	30	3.1	-2.64945E-001	-3.14902E-001	-2.89923E-001	-3.03883E-008	-1.09030E-007	7.86413E-008	-3.15000E-001	3.76706E-004	6	..........a	-327.68
	32	3.3	-2.60882E-001	-3.10906E-001	-2.85894E-001	-2.71639E-008	-1.04281E-007	7.71175E-008	-3.11000E-001	3.97539E-004	6	..........a	-327.68
	34	3.5	-2.56888E-001	-3.06850E-001	-2.81869E-001	-2.43832E-008	-1.00338E-007	7.59543E-008	-3.07000E-001	3.68539E-004	6	..........a	-327.68
	36	3.7	-2.52904E-001	-3.02929E-001	-2.77916E-001	-2.19029E-008	-9.61683E-008	7.42655E-008	-3.03000E-001	3.96539E-004	6	..........a	-327.68
	38	3.9	-2.48912E-001	-2.98873E-001	-2.73892E-001	-1.93209E-008	-9.23232E-008	7.30023E-008	-2.99000E-001	3.94373E-004	6	..........a	-327.68
	40	4.1	-2.44902E-001	-2.94907E-001	-2.69904E-001	-1.69996E-008	-8.86500E-008	7.16504E-008	-2.95000E-001	3.83039E-004	6	..........a	-327.68
	42	4.3	-2.40980E-001	-2.90828E-001	-2.65904E-001	-1.45329E-008	-8.49722E-008	7.04393E-008	-2.91000E-001	3.86873E-004	6	..........a	-327.68
	44	4.5	-2.36869E-001	-2.86918E-001	-2.61893E-001	-1.23337E-008	-8.15571E-008	6.92235E-008	-2.87000E-001	3.84873E-004	6	..........a	-327.68
	46	4.7	-2.32896E-001	-2.82834E-001	-2.57865E-001	-1.04801E-008	-7.79267E-008	6.74466E-008	-2.83000E-001	3.89539E-004	6	..........a	-327.68
	48	4.9	-2.28853E-001	-2.78911E-001	-2.53882E-001	-8.42349E-009	-7.50383E-008	6.66148E-008	-2.79000E-001	3.89706E-004	6	..........a	-327.68
	50	5.1	-2.24900E-001	-2.74876E-001	-2.49888E-001	-6.65726E-009	-7.18579E-008	6.52006E-008	-2.75000E-001	4.03373E-004	6	..........a	-327.68
	52	5.3	-2.20893E-001	-2.70882E-001	-2.45887E-001	-5.01039E-009	-6.89479E-008	6.39375E-008	-2.71000E-001	4.04206E-004	6	..........a	-327.68
	54	5.5	-2.16997E-001	-2.66801E-001	-2.41899E-001	-3.18649E-009	-6.61688E-008	6.29824E-008	-2.67000E-001	3.87539E-004	6	..........a	-327.68
	56	5.7	-2.12922E-001	-2.62886E-001	-2.37904E-001	-1.62962E-009	-6.31701E-008	6.15405E-008	-2.63000E-001	3.86706E-004	6	..........a	-327.68
	58	5.9	-2.08910E-001	-2.58836E-001	-2.33873E-001	-1.82773E-010	-6.05471E-008	6.03643E-008	-2.59000E-001	3.67039E-004	6	..........a	-327.68
	60	6.1	-2.04866E-001	-2.54898E-001	-2.29882E-001	1.25274E-009	-5.80475E-008	5.93002E-008	-2.55000E-001	3.77539E-004	6	..........a	-327.68
	62	6.3	-2.00915E-001	-2.50865E-001	-2.25890E-001	2.29954E-009	-5.56372E-008	5.79367E-008	-2.51000E-001	3.66039E-004	6	..........a	-327.68
	64	6.5	-1.96907E-001	-2.46884E-001	-2.21896E-001	3.45236E-009	-5.35726E-008	5.70249E-008	-2.47000E-001	3.66206E-004	6	..........a	-327.68
	66	6.7	-1.92916E-001	-2.42795E-001	-2.17855E-001	4.63584E-009	-5.10372E-008	5.56731E-008	-2.43000E-001	3.62373E-004	6	..........a	-327.68
	68	6.9	-1.88851E-001	-2.38914E-001	-2.13883E-001	5.83899E-009	-4.89920E-008	5.48310E-008	-2.39000E-001	3.66706E-004	6	..........a	-327.68
	70	7.1	-1.84920E-001	-2.34825E-001	-2.09872E-001	6.54908E-009	-4.69851E-008	5.35341E-008	-2.35000E-001	3.78373E-004	6	..........a	-327.68
	72	7.3	-1.80828E-001	-2.30904E-001	-2.05866E-001	7.62455E-009	-4.51768E-008	5.28014E-008	-2.31000E-001	3.76039E-004	6	..........a	-327.68
	74	7.5	-1.76889E-001	-2.26848E-001	-2.01869E-001	8.62801E-009	-4.34740E-008	5.21020E-008	-2.27000E-001	3.96039E-004	6	..........a	-327.68
	76	7.7	-1.72879E-001	-2.22903E-001	-1.97891E-001	9.58480E-009	-4.16897E-008	5.12745E-008	-2.23000E-001	3.70039E-004	6	..........a	-327.68
	78	7.9	-1.68893E-001	-2.18887E-001	-1.93890E-001	1.04226E-008	-4.02542E-008	5.06768E-008	-2.19000E-001	3.72873E-004	6	..........a	-327.68
	80	8.1	-1.64755E-001	-2.14916E-001	-1.89835E-001	1.14607E-008	-3.88187E-008	5.02794E-008	-2.15000E-001	3.64873E-004	6	..........a	-327.68
	82	8.3	-1.60921E-001	-2.10865E-001	-1.85893E-001	1.20721E-008	-3.72228E-008	4.92949E-008	-2.11000E-001	3.69373E-004	6	..........a	-327.68
	84	8.5	-1.56836E-001	-2.06912E-001	-1.81874E-001	1.28189E-008	-3.57936E-008	4.86125E-008	-2.07000E-001	3.60206E-004	6	..........a	-327.68
	86	8.7	-1.52906E-001	-2.02840E-001	-1.77873E-001	1.36443E-008	-3.47115E-008	4.83558E-008	-2.03000E-001	3.45039E-004	6	..........a	-327.68
	88	8.9	-1.48834E-001	-1.98906E-001	-1.73870E-001	1.45658E-008	-3.34107E-008	4.79764E-008	-1.99000E-001	3.71873E-004	6	..........a	-327.68
	90	9.1	-1.44896E-001	-1.94883E-001	-1.69890E-001	1.51915E-008	-3.23192E-008	4.75107E-008	-1.95000E-001	3.51706E-004	6	..........a	-327.68
	92	9.3	-1.40884E-001	-1.90923E-001	-1.65903E-001	1.60930E-008	-3.11387E-008	4.72317E-008	-1.91000E-001	3.70039E-004	6	..........a	-327.68
	94	9.5	-1.36901E-001	-1.86847E-001	-1.61874E-001	1.65744E-008	-3.03533E-008	4.69276E-008	-1.87000E-001	3.66539E-004	6	..........a	-327.68
	96	9.7	-1.32828E-001	-1.82892E-001	-1.57860E-001	1.74215E-008	-2.93978E-008	4.68193E-008	-1.83000E-001	3.82539E-004	6	..........a	-327.68
	98	9.9	-1.28880E-001	-1.78822E-001	-1.53851E-001	1.78429E-008	-2.84597E-008	4.63026E-008	-1.79000E-001	3.74373E-004	6	..........a	-327.68
	100	10.1	-1.24878E-001	-1.74898E-001	-1.49888E-001	1.84893E-008	-2.76689E-008	4.61582E-008	-1.75000E-001	3.52373E-004	6	..........a	-327.68