File: Sample Data/Concentration Curve Data/C-COM3/SWV_10Hz STD3 10  fgml 081020_#6.DTA
EXPLAIN
TAG	SQUARE_WAVE
TITLE	LABEL	Square Wave Voltammetry	Test Identifier
DATE	LABEL	8/10/2020	Date
TIME	LABEL	17:55:11	Time
NOTES	NOTES	1	Notes...
	 STD3, 10  fg/mL 08102
PSTAT	PSTAT	REF600-24079	Potentiostat
VINIT	QUANT	-3.50000E-001	Initial E (V)
VFINAL	QUANT	-1.50000E-001	Final E (V)
STEPSIZE	QUANT	2.00000E+000	Step Size (mV)
TIMERRES	QUANT	3.33340E-005	&Timer Resolution
FREQUENCY	QUANT	1.00000E+001	Frequency (Hz)
PULSESIZE	QUANT	2.50000E+001	Pulse Size E (mV)
PULSEON	QUANT	1.00000E-001	Pulse &Time (s)
NOISEREJECT	TOGGLE	F	Noise Rejection
AREA	QUANT	2.00000E-002	Sample Area (cm^2)
IMODE	SELECTOR	1	I/E Range Mode
IRANGE	QUANT	1.00000E-003	Max Current (mA)
EQDELAY	IQUANT	10	Equil. Time (s)
IRCOMP	SELECTOR	0	IRComp
PFCOR	QUANT	5.00000E+001	PF Corr. (ohm)
CYCLES	IQUANT	101	C&ycles (#)
ELECTRODETYPE	SELECTOR	0	Electrode Type
STRIPPING	TOGGLE	F	Used for Stripping
POLARITY	TOGGLE	F	Signal Polarity
LINEFREQ	IQUANT	60	Line Frequency (Hz)
INTPERIOD	QUANT	3.3334E-005	Integration Period (s)
SEQUENCER	TOGGLE	TRUE	Run as Sequence
PSTATMODEL	IQUANT	4	Pstat Model
PSTATSECTION	LABEL	REF600-24079	Pstat Section
PSTATSERIALNO	LABEL	24079	Pstat Serial Number
CTRLMODE	IQUANT	1	Control Mode
ELECTROMETER	IQUANT	0	RE=0 or CS=1
IESTAB	IQUANT	2	I/E Stability
CASPEED	IQUANT	6	Control Amp Speed
CONVENTION	IQUANT	1	Current Convention
ICHRANGE	IQUANT	2	Ich Range
ICHRANGEMODE	TOGGLE	F	Ich Auto Range
ICHOFFSETENABLE	TOGGLE	F	Ich Offset Enable
ICHOFFSET	QUANT	0	Ich Offset (V)
ICHFILTER	IQUANT	2	Ich Filter
VCHRANGE	IQUANT	2	Vch Range
VCHRANGEMODE	TOGGLE	F	Vch Auto Range
VCHOFFSETENABLE	TOGGLE	F	Vch Offset Enable
VCHOFFSET	QUANT	0	Vch Offset (V)
VCHFILTER	IQUANT	2	Vch Filter
ACHRANGE	IQUANT	2	Ach Range
ACHOFFSETENABLE	TOGGLE	F	Ach Offset Enable
ACHOFFSET	QUANT	0	Ach Offset (V)
ACHFILTER	IQUANT	1	Ach Filter
IERANGELOWERLIMIT	IQUANT	1	I/E Range Lower Limit
IERANGEMODE	TOGGLE	F	I/E AutoRange
IERANGE	IQUANT	6	I/E Range
POSFEEDENABLE	TOGGLE	F	Positive Feedback IR Comp
POSFEEDRESISTANCE	QUANT	0	Positive Feedback Resistance (ohm)
ACHSELECT	IQUANT	0	Ach Select
SENSECABLEID	IQUANT	13	Sense Cable ID
PWRCABLEID	IQUANT	13	Power Cable ID
DCCALDATE	LABEL	6/30/2020	DC Calibration Date
ACCALDATE	LABEL	6/30/2020	AC Calibration Date
THERMOSELECT	IQUANT	1	Thermo Select
FRAMEWORKVERSION	LABEL	7.8.2	Framework Version
INSTRUMENTVERSION	LABEL	4.40	Instrument Version
CURVE	TABLE	101
	Pt	T	Vfwd	Vrev	Vstep	Ifwd	Irev	Idif	Sig	Ach	IERange	Over	Temp
	#	s	V	V	V	A	A	A	V	V	#	bits	deg C
	0	0.1	-3.24876E-001	-3.74887E-001	-3.49882E-001	-7.94075E-008	-1.56293E-007	7.68854E-008	-3.75000E-001	3.91873E-004	6	..........a	-327.68
	2	0.3	-3.20863E-001	-3.70770E-001	-3.45816E-001	-6.19766E-008	-1.46111E-007	8.41344E-008	-3.71000E-001	3.90206E-004	6	..........a	-327.68
	4	0.5	-3.16818E-001	-3.66925E-001	-3.41872E-001	-5.77664E-008	-1.40010E-007	8.22431E-008	-3.67000E-001	4.00706E-004	6	..........a	-327.68
	6	0.7	-3.12874E-001	-3.62806E-001	-3.37840E-001	-5.42016E-008	-1.35060E-007	8.08583E-008	-3.63000E-001	4.14706E-004	6	..........a	-327.68
	8	0.9	-3.08852E-001	-3.58878E-001	-3.33865E-001	-5.10503E-008	-1.29861E-007	7.88107E-008	-3.59000E-001	3.92539E-004	6	..........a	-327.68
	10	1.1	-3.04906E-001	-3.54837E-001	-3.29872E-001	-4.77935E-008	-1.24970E-007	7.71761E-008	-3.55000E-001	4.07706E-004	6	..........a	-327.68
	12	1.3	-3.00893E-001	-3.50887E-001	-3.25890E-001	-4.47988E-008	-1.20508E-007	7.57090E-008	-3.51000E-001	4.10206E-004	6	..........a	-327.68
	14	1.5	-2.96891E-001	-3.46873E-001	-3.21882E-001	-4.18687E-008	-1.16052E-007	7.41831E-008	-3.47000E-001	4.07873E-004	6	..........a	-327.68
	16	1.7	-2.92755E-001	-3.42881E-001	-3.17818E-001	-3.89070E-008	-1.11814E-007	7.29069E-008	-3.43000E-001	3.92039E-004	6	..........a	-327.68
	18	1.9	-2.88920E-001	-3.38822E-001	-3.13871E-001	-3.61974E-008	-1.07445E-007	7.12477E-008	-3.39000E-001	3.85206E-004	6	..........a	-327.68
	20	2.1	-2.84826E-001	-3.34889E-001	-3.09857E-001	-3.33050E-008	-1.03557E-007	7.02523E-008	-3.35000E-001	3.94873E-004	6	..........a	-327.68
	22	2.3	-2.80907E-001	-3.30820E-001	-3.05863E-001	-3.07540E-008	-1.00037E-007	6.92828E-008	-3.31000E-001	3.83873E-004	6	..........a	-327.68
	24	2.5	-2.76870E-001	-3.26896E-001	-3.01883E-001	-2.81057E-008	-9.65200E-008	6.84144E-008	-3.27000E-001	3.97539E-004	6	..........a	-327.68
	26	2.7	-2.72888E-001	-3.22867E-001	-2.97878E-001	-2.56000E-008	-9.29749E-008	6.73749E-008	-3.23000E-001	3.97373E-004	6	..........a	-327.68
	28	2.9	-2.68885E-001	-3.18905E-001	-2.93895E-001	-2.29500E-008	-8.97375E-008	6.67875E-008	-3.19000E-001	4.08539E-004	6	..........a	-327.68
	30	3.1	-2.64926E-001	-3.14869E-001	-2.89897E-001	-2.09931E-008	-8.67498E-008	6.57567E-008	-3.15000E-001	3.92539E-004	6	..........a	-327.68
	32	3.3	-2.60819E-001	-3.10892E-001	-2.85855E-001	-1.84354E-008	-8.35297E-008	6.50943E-008	-3.11000E-001	4.04873E-004	6	..........a	-327.68
	34	3.5	-2.56871E-001	-3.06843E-001	-2.81857E-001	-1.61691E-008	-8.09684E-008	6.47992E-008	-3.07000E-001	4.12873E-004	6	..........a	-327.68
	36	3.7	-2.52839E-001	-3.02894E-001	-2.77866E-001	-1.40825E-008	-7.80787E-008	6.39961E-008	-3.03000E-001	4.07706E-004	6	..........a	-327.68
	38	3.9	-2.48897E-001	-2.98866E-001	-2.73881E-001	-1.21710E-008	-7.56924E-008	6.35214E-008	-2.99000E-001	4.25706E-004	6	..........a	-327.68
	40	4.1	-2.44887E-001	-2.94882E-001	-2.69885E-001	-1.03264E-008	-7.29400E-008	6.26136E-008	-2.95000E-001	4.15039E-004	6	..........a	-327.68
	42	4.3	-2.40902E-001	-2.90811E-001	-2.65856E-001	-8.49216E-009	-7.05241E-008	6.20319E-008	-2.91000E-001	4.16873E-004	6	..........a	-327.68
	44	4.5	-2.36864E-001	-2.86886E-001	-2.61875E-001	-7.08899E-009	-6.80614E-008	6.09724E-008	-2.87000E-001	4.15039E-004	6	..........a	-327.68
	46	4.7	-2.32853E-001	-2.82817E-001	-2.57835E-001	-5.22842E-009	-6.60145E-008	6.07861E-008	-2.83000E-001	4.37206E-004	6	..........a	-327.68
	48	4.9	-2.28838E-001	-2.78878E-001	-2.53858E-001	-3.90225E-009	-6.36425E-008	5.97403E-008	-2.79000E-001	3.95873E-004	6	..........a	-327.68
	50	5.1	-2.24881E-001	-2.74848E-001	-2.49865E-001	-2.68509E-009	-6.14876E-008	5.88025E-008	-2.75000E-001	4.11206E-004	6	..........a	-327.68
	52	5.3	-2.20885E-001	-2.70864E-001	-2.45874E-001	-1.42693E-009	-5.94343E-008	5.80074E-008	-2.71000E-001	4.01373E-004	6	..........a	-327.68
	54	5.5	-2.16919E-001	-2.66784E-001	-2.41851E-001	-2.16111E-010	-5.71590E-008	5.69429E-008	-2.67000E-001	4.08206E-004	6	..........a	-327.68
	56	5.7	-2.12877E-001	-2.62872E-001	-2.37875E-001	9.60372E-010	-5.51598E-008	5.61201E-008	-2.63000E-001	4.01373E-004	6	..........a	-327.68
	58	5.9	-2.08881E-001	-2.58811E-001	-2.33846E-001	1.91883E-009	-5.32795E-008	5.51984E-008	-2.59000E-001	4.06539E-004	6	..........a	-327.68
	60	6.1	-2.04844E-001	-2.54891E-001	-2.29868E-001	2.95963E-009	-5.10186E-008	5.39782E-008	-2.55000E-001	4.08039E-004	6	..........a	-327.68
	62	6.3	-2.00885E-001	-2.50856E-001	-2.25870E-001	3.69072E-009	-4.94620E-008	5.31528E-008	-2.51000E-001	3.90706E-004	6	..........a	-327.68
	64	6.5	-1.96887E-001	-2.46878E-001	-2.21883E-001	4.79953E-009	-4.76191E-008	5.24187E-008	-2.47000E-001	3.93206E-004	6	..........a	-327.68
	66	6.7	-1.92908E-001	-2.42783E-001	-2.17846E-001	5.46495E-009	-4.59076E-008	5.13725E-008	-2.43000E-001	3.73873E-004	6	..........a	-327.68
	68	6.9	-1.88752E-001	-2.38893E-001	-2.13822E-001	6.56075E-009	-4.44027E-008	5.09635E-008	-2.39000E-001	3.90373E-004	6	..........a	-327.68
	70	7.1	-1.84914E-001	-2.34819E-001	-2.09866E-001	7.19250E-009	-4.27072E-008	4.98997E-008	-2.35000E-001	3.85539E-004	6	..........a	-327.68
	72	7.3	-1.80795E-001	-2.30875E-001	-2.05835E-001	8.11762E-009	-4.11033E-008	4.92209E-008	-2.31000E-001	4.02706E-004	6	..........a	-327.68
	74	7.5	-1.76871E-001	-2.26830E-001	-2.01851E-001	8.81437E-009	-3.95838E-008	4.83982E-008	-2.27000E-001	3.74373E-004	6	..........a	-327.68
	76	7.7	-1.72859E-001	-2.22891E-001	-1.97875E-001	9.64581E-009	-3.82876E-008	4.79334E-008	-2.23000E-001	3.82206E-004	6	..........a	-327.68
	78	7.9	-1.68887E-001	-2.18874E-001	-1.93880E-001	1.03279E-008	-3.71158E-008	4.74437E-008	-2.19000E-001	3.70706E-004	6	..........a	-327.68
	80	8.1	-1.64714E-001	-2.14932E-001	-1.89823E-001	1.12890E-008	-3.56580E-008	4.69470E-008	-2.15000E-001	3.87706E-004	6	..........a	-327.68
	82	8.3	-1.60923E-001	-2.10853E-001	-1.85888E-001	1.19504E-008	-3.46222E-008	4.65726E-008	-2.11000E-001	3.76373E-004	6	..........a	-327.68
	84	8.5	-1.56817E-001	-2.06895E-001	-1.81856E-001	1.27622E-008	-3.36104E-008	4.63726E-008	-2.07000E-001	3.82373E-004	6	..........a	-327.68
	86	8.7	-1.52908E-001	-2.02831E-001	-1.77870E-001	1.33246E-008	-3.24619E-008	4.57865E-008	-2.03000E-001	3.68706E-004	6	..........a	-327.68
	88	8.9	-1.48863E-001	-1.98900E-001	-1.73881E-001	1.41017E-008	-3.17638E-008	4.58655E-008	-1.99000E-001	3.88206E-004	6	..........a	-327.68
	90	9.1	-1.44884E-001	-1.94866E-001	-1.69875E-001	1.47135E-008	-3.06033E-008	4.53168E-008	-1.95000E-001	3.83373E-004	6	..........a	-327.68
	92	9.3	-1.40881E-001	-1.90921E-001	-1.65901E-001	1.53935E-008	-2.97095E-008	4.51031E-008	-1.91000E-001	3.96539E-004	6	..........a	-327.68
	94	9.5	-1.36895E-001	-1.86840E-001	-1.61867E-001	1.58663E-008	-2.89034E-008	4.47697E-008	-1.87000E-001	3.75706E-004	6	..........a	-327.68
	96	9.7	-1.32792E-001	-1.82878E-001	-1.57835E-001	1.64207E-008	-2.82900E-008	4.47107E-008	-1.83000E-001	3.81873E-004	6	..........a	-327.68
	98	9.9	-1.28854E-001	-1.78821E-001	-1.53838E-001	1.70214E-008	-2.73419E-008	4.43633E-008	-1.79000E-001	3.77873E-004	6	..........a	-327.68
	100	10.1	-1.24848E-001	-1.74897E-001	-1.49873E-001	1.75535E-008	-2.67368E-008	4.42903E-008	-1.75000E-001	3.92873E-004	6	..........a	-327.68