File: Sample Data/Concentration Curve Data/C-COM3/SWV_10Hz STD3 10  fgml 081020_#7.DTA
EXPLAIN
TAG	SQUARE_WAVE
TITLE	LABEL	Square Wave Voltammetry	Test Identifier
DATE	LABEL	8/10/2020	Date
TIME	LABEL	17:55:31	Time
NOTES	NOTES	1	Notes...
	 STD3, 10  fg/mL 08102
PSTAT	PSTAT	REF600-24079	Potentiostat
VINIT	QUANT	-3.50000E-001	Initial E (V)
VFINAL	QUANT	-1.50000E-001	Final E (V)
STEPSIZE	QUANT	2.00000E+000	Step Size (mV)
TIMERRES	QUANT	3.33340E-005	&Timer Resolution
FREQUENCY	QUANT	1.00000E+001	Frequency (Hz)
PULSESIZE	QUANT	2.50000E+001	Pulse Size E (mV)
PULSEON	QUANT	1.00000E-001	Pulse &Time (s)
NOISEREJECT	TOGGLE	F	Noise Rejection
AREA	QUANT	2.00000E-002	Sample Area (cm^2)
IMODE	SELECTOR	1	I/E Range Mode
IRANGE	QUANT	1.00000E-003	Max Current (mA)
EQDELAY	IQUANT	10	Equil. Time (s)
IRCOMP	SELECTOR	0	IRComp
PFCOR	QUANT	5.00000E+001	PF Corr. (ohm)
CYCLES	IQUANT	101	C&ycles (#)
ELECTRODETYPE	SELECTOR	0	Electrode Type
STRIPPING	TOGGLE	F	Used for Stripping
POLARITY	TOGGLE	F	Signal Polarity
LINEFREQ	IQUANT	60	Line Frequency (Hz)
INTPERIOD	QUANT	3.3334E-005	Integration Period (s)
SEQUENCER	TOGGLE	TRUE	Run as Sequence
PSTATMODEL	IQUANT	4	Pstat Model
PSTATSECTION	LABEL	REF600-24079	Pstat Section
PSTATSERIALNO	LABEL	24079	Pstat Serial Number
CTRLMODE	IQUANT	1	Control Mode
ELECTROMETER	IQUANT	0	RE=0 or CS=1
IESTAB	IQUANT	2	I/E Stability
CASPEED	IQUANT	6	Control Amp Speed
CONVENTION	IQUANT	1	Current Convention
ICHRANGE	IQUANT	2	Ich Range
ICHRANGEMODE	TOGGLE	F	Ich Auto Range
ICHOFFSETENABLE	TOGGLE	F	Ich Offset Enable
ICHOFFSET	QUANT	0	Ich Offset (V)
ICHFILTER	IQUANT	2	Ich Filter
VCHRANGE	IQUANT	2	Vch Range
VCHRANGEMODE	TOGGLE	F	Vch Auto Range
VCHOFFSETENABLE	TOGGLE	F	Vch Offset Enable
VCHOFFSET	QUANT	0	Vch Offset (V)
VCHFILTER	IQUANT	2	Vch Filter
ACHRANGE	IQUANT	2	Ach Range
ACHOFFSETENABLE	TOGGLE	F	Ach Offset Enable
ACHOFFSET	QUANT	0	Ach Offset (V)
ACHFILTER	IQUANT	1	Ach Filter
IERANGELOWERLIMIT	IQUANT	1	I/E Range Lower Limit
IERANGEMODE	TOGGLE	F	I/E AutoRange
IERANGE	IQUANT	6	I/E Range
POSFEEDENABLE	TOGGLE	F	Positive Feedback IR Comp
POSFEEDRESISTANCE	QUANT	0	Positive Feedback Resistance (ohm)
ACHSELECT	IQUANT	0	Ach Select
SENSECABLEID	IQUANT	13	Sense Cable ID
PWRCABLEID	IQUANT	13	Power Cable ID
DCCALDATE	LABEL	6/30/2020	DC Calibration Date
ACCALDATE	LABEL	6/30/2020	AC Calibration Date
THERMOSELECT	IQUANT	1	Thermo Select
FRAMEWORKVERSION	LABEL	7.8.2	Framework Version
INSTRUMENTVERSION	LABEL	4.40	Instrument Version
CURVE	TABLE	101
	Pt	T	Vfwd	Vrev	Vstep	Ifwd	Irev	Idif	Sig	Ach	IERange	Over	Temp
	#	s	V	V	V	A	A	A	V	V	#	bits	deg C
	0	0.1	-3.24872E-001	-3.74887E-001	-3.49880E-001	-8.01570E-008	-1.57005E-007	7.68481E-008	-3.75000E-001	3.93873E-004	6	..........a	-327.68
	2	0.3	-3.20870E-001	-3.70780E-001	-3.45825E-001	-6.25217E-008	-1.46636E-007	8.41140E-008	-3.71000E-001	3.99873E-004	6	..........a	-327.68
	4	0.5	-3.16860E-001	-3.66929E-001	-3.41895E-001	-5.84589E-008	-1.40744E-007	8.22848E-008	-3.67000E-001	3.91873E-004	6	..........a	-327.68
	6	0.7	-3.12886E-001	-3.62816E-001	-3.37851E-001	-5.46740E-008	-1.35452E-007	8.07783E-008	-3.63000E-001	4.06539E-004	6	..........a	-327.68
	8	0.9	-3.08862E-001	-3.58878E-001	-3.33870E-001	-5.17370E-008	-1.30464E-007	7.87274E-008	-3.59000E-001	3.93039E-004	6	..........a	-327.68
	10	1.1	-3.04892E-001	-3.54838E-001	-3.29865E-001	-4.85136E-008	-1.25567E-007	7.70538E-008	-3.55000E-001	3.89206E-004	6	..........a	-327.68
	12	1.3	-3.00896E-001	-3.50886E-001	-3.25891E-001	-4.55922E-008	-1.21209E-007	7.56173E-008	-3.51000E-001	3.99706E-004	6	..........a	-327.68
	14	1.5	-2.96887E-001	-3.46867E-001	-3.21877E-001	-4.25592E-008	-1.16625E-007	7.40654E-008	-3.47000E-001	4.08873E-004	6	..........a	-327.68
	16	1.7	-2.92760E-001	-3.42879E-001	-3.17820E-001	-3.96488E-008	-1.12495E-007	7.28459E-008	-3.43000E-001	4.10206E-004	6	..........a	-327.68
	18	1.9	-2.88925E-001	-3.38844E-001	-3.13884E-001	-3.67264E-008	-1.08145E-007	7.14188E-008	-3.39000E-001	3.81373E-004	6	..........a	-327.68
	20	2.1	-2.84850E-001	-3.34898E-001	-3.09874E-001	-3.41474E-008	-1.04346E-007	7.01986E-008	-3.35000E-001	3.91873E-004	6	..........a	-327.68
	22	2.3	-2.80915E-001	-3.30814E-001	-3.05865E-001	-3.13244E-008	-1.00806E-007	6.94812E-008	-3.31000E-001	3.94206E-004	6	..........a	-327.68
	24	2.5	-2.76882E-001	-3.26891E-001	-3.01886E-001	-2.88001E-008	-9.70738E-008	6.82737E-008	-3.27000E-001	3.83373E-004	6	..........a	-327.68
	26	2.7	-2.72880E-001	-3.22867E-001	-2.97873E-001	-2.61797E-008	-9.37773E-008	6.75976E-008	-3.23000E-001	3.86873E-004	6	..........a	-327.68
	28	2.9	-2.68880E-001	-3.18908E-001	-2.93894E-001	-2.36478E-008	-9.04333E-008	6.67855E-008	-3.19000E-001	3.91373E-004	6	..........a	-327.68
	30	3.1	-2.64911E-001	-3.14869E-001	-2.89890E-001	-2.14998E-008	-8.71488E-008	6.56490E-008	-3.15000E-001	3.94206E-004	6	..........a	-327.68
	32	3.3	-2.60813E-001	-3.10883E-001	-2.85848E-001	-1.89095E-008	-8.43985E-008	6.54890E-008	-3.11000E-001	3.79373E-004	6	..........a	-327.68
	34	3.5	-2.56860E-001	-3.06841E-001	-2.81851E-001	-1.68169E-008	-8.12751E-008	6.44582E-008	-3.07000E-001	3.92539E-004	6	..........a	-327.68
	36	3.7	-2.52855E-001	-3.02898E-001	-2.77876E-001	-1.48020E-008	-7.87985E-008	6.39965E-008	-3.03000E-001	4.04873E-004	6	..........a	-327.68
	38	3.9	-2.48897E-001	-2.98871E-001	-2.73884E-001	-1.25640E-008	-7.61844E-008	6.36204E-008	-2.99000E-001	4.07039E-004	6	..........a	-327.68
	40	4.1	-2.44878E-001	-2.94867E-001	-2.69872E-001	-1.08451E-008	-7.36758E-008	6.28307E-008	-2.95000E-001	4.09373E-004	6	..........a	-327.68
	42	4.3	-2.40907E-001	-2.90837E-001	-2.65872E-001	-8.98856E-009	-7.11571E-008	6.21686E-008	-2.91000E-001	3.92706E-004	6	..........a	-327.68
	44	4.5	-2.36893E-001	-2.86885E-001	-2.61889E-001	-7.52371E-009	-6.88495E-008	6.13258E-008	-2.87000E-001	4.11873E-004	6	..........a	-327.68
	46	4.7	-2.32870E-001	-2.82819E-001	-2.57845E-001	-6.07652E-009	-6.65572E-008	6.04807E-008	-2.83000E-001	4.05539E-004	6	..........a	-327.68
	48	4.9	-2.28820E-001	-2.78866E-001	-2.53843E-001	-4.49099E-009	-6.44320E-008	5.99410E-008	-2.79000E-001	4.08039E-004	6	..........a	-327.68
	50	5.1	-2.24878E-001	-2.74857E-001	-2.49867E-001	-3.06581E-009	-6.22140E-008	5.91482E-008	-2.75000E-001	4.02706E-004	6	..........a	-327.68
	52	5.3	-2.20876E-001	-2.70865E-001	-2.45870E-001	-1.86199E-009	-6.00361E-008	5.81741E-008	-2.71000E-001	3.98873E-004	6	..........a	-327.68
	54	5.5	-2.16926E-001	-2.66790E-001	-2.41858E-001	-8.23188E-010	-5.77794E-008	5.69563E-008	-2.67000E-001	4.03039E-004	6	..........a	-327.68
	56	5.7	-2.12861E-001	-2.62881E-001	-2.37871E-001	3.82299E-010	-5.57442E-008	5.61265E-008	-2.63000E-001	3.94206E-004	6	..........a	-327.68
	58	5.9	-2.08869E-001	-2.58829E-001	-2.33849E-001	1.53578E-009	-5.38856E-008	5.54214E-008	-2.59000E-001	3.86039E-004	6	..........a	-327.68
	60	6.1	-2.04870E-001	-2.54881E-001	-2.29875E-001	2.35022E-009	-5.16730E-008	5.40232E-008	-2.55000E-001	3.80373E-004	6	..........a	-327.68
	62	6.3	-2.00889E-001	-2.50844E-001	-2.25867E-001	3.37035E-009	-5.00818E-008	5.34521E-008	-2.51000E-001	3.79039E-004	6	..........a	-327.68
	64	6.5	-1.96890E-001	-2.46879E-001	-2.21885E-001	4.19578E-009	-4.82446E-008	5.24403E-008	-2.47000E-001	3.64039E-004	6	..........a	-327.68
	66	6.7	-1.92895E-001	-2.42794E-001	-2.17845E-001	5.07290E-009	-4.64270E-008	5.14999E-008	-2.43000E-001	3.65706E-004	6	..........a	-327.68
	68	6.9	-1.88833E-001	-2.38896E-001	-2.13865E-001	6.03302E-009	-4.48235E-008	5.08565E-008	-2.39000E-001	3.71873E-004	6	..........a	-327.68
	70	7.1	-1.84918E-001	-2.34819E-001	-2.09868E-001	6.68177E-009	-4.31549E-008	4.98367E-008	-2.35000E-001	3.83873E-004	6	..........a	-327.68
	72	7.3	-1.80807E-001	-2.30869E-001	-2.05838E-001	7.64656E-009	-4.16234E-008	4.92699E-008	-2.31000E-001	3.70373E-004	6	..........a	-327.68
	74	7.5	-1.76848E-001	-2.26828E-001	-2.01838E-001	8.32864E-009	-4.01345E-008	4.84632E-008	-2.27000E-001	3.78039E-004	6	..........a	-327.68
	76	7.7	-1.72863E-001	-2.22884E-001	-1.97874E-001	9.28443E-009	-3.88800E-008	4.81645E-008	-2.23000E-001	3.70206E-004	6	..........a	-327.68
	78	7.9	-1.68888E-001	-2.18861E-001	-1.93875E-001	1.00789E-008	-3.75622E-008	4.76411E-008	-2.19000E-001	3.66206E-004	6	..........a	-327.68
	80	8.1	-1.64720E-001	-2.14915E-001	-1.89818E-001	1.10100E-008	-3.61287E-008	4.71387E-008	-2.15000E-001	3.73539E-004	6	..........a	-327.68
	82	8.3	-1.60911E-001	-2.10869E-001	-1.85890E-001	1.17091E-008	-3.51259E-008	4.68350E-008	-2.11000E-001	3.73206E-004	6	..........a	-327.68
	84	8.5	-1.56839E-001	-2.06901E-001	-1.81870E-001	1.21441E-008	-3.39797E-008	4.61239E-008	-2.07000E-001	3.79373E-004	6	..........a	-327.68
	86	8.7	-1.52900E-001	-2.02823E-001	-1.77862E-001	1.29292E-008	-3.31030E-008	4.60322E-008	-2.03000E-001	3.62706E-004	6	..........a	-327.68
	88	8.9	-1.48819E-001	-1.98900E-001	-1.73860E-001	1.37097E-008	-3.21878E-008	4.58975E-008	-1.99000E-001	3.63539E-004	6	..........a	-327.68
	90	9.1	-1.44880E-001	-1.94858E-001	-1.69869E-001	1.44111E-008	-3.11544E-008	4.55655E-008	-1.95000E-001	3.62373E-004	6	..........a	-327.68
	92	9.3	-1.40879E-001	-1.90916E-001	-1.65898E-001	1.50732E-008	-3.00942E-008	4.51674E-008	-1.91000E-001	3.63706E-004	6	..........a	-327.68
	94	9.5	-1.36890E-001	-1.86834E-001	-1.61862E-001	1.55289E-008	-2.93155E-008	4.48444E-008	-1.87000E-001	3.64539E-004	6	..........a	-327.68
	96	9.7	-1.32759E-001	-1.82884E-001	-1.57822E-001	1.60853E-008	-2.87064E-008	4.47917E-008	-1.83000E-001	3.63373E-004	6	..........a	-327.68
	98	9.9	-1.28831E-001	-1.78821E-001	-1.53826E-001	1.68144E-008	-2.80993E-008	4.49137E-008	-1.79000E-001	3.57206E-004	6	..........a	-327.68
	100	10.1	-1.24873E-001	-1.74885E-001	-1.49879E-001	1.72491E-008	-2.70719E-008	4.43210E-008	-1.75000E-001	3.77373E-004	6	..........a	-327.68