File: C-COM2/SWV_10Hz STD2 50  fgml 081020_#10.DTA
EXPLAIN
TAG	SQUARE_WAVE
TITLE	LABEL	Square Wave Voltammetry	Test Identifier
DATE	LABEL	8/10/2020	Date
TIME	LABEL	19:29:41	Time
NOTES	NOTES	1	Notes...
	 STD2 50  fg/mL 08102
PSTAT	PSTAT	REF600-24079	Potentiostat
VINIT	QUANT	-3.50000E-001	Initial E (V)
VFINAL	QUANT	-1.50000E-001	Final E (V)
STEPSIZE	QUANT	2.00000E+000	Step Size (mV)
TIMERRES	QUANT	3.33340E-005	&Timer Resolution
FREQUENCY	QUANT	1.00000E+001	Frequency (Hz)
PULSESIZE	QUANT	2.50000E+001	Pulse Size E (mV)
PULSEON	QUANT	1.00000E-001	Pulse &Time (s)
NOISEREJECT	TOGGLE	F	Noise Rejection
AREA	QUANT	2.00000E-002	Sample Area (cm^2)
IMODE	SELECTOR	1	I/E Range Mode
IRANGE	QUANT	1.00000E-003	Max Current (mA)
EQDELAY	IQUANT	10	Equil. Time (s)
IRCOMP	SELECTOR	0	IRComp
PFCOR	QUANT	5.00000E+001	PF Corr. (ohm)
CYCLES	IQUANT	101	C&ycles (#)
ELECTRODETYPE	SELECTOR	0	Electrode Type
STRIPPING	TOGGLE	F	Used for Stripping
POLARITY	TOGGLE	F	Signal Polarity
LINEFREQ	IQUANT	60	Line Frequency (Hz)
INTPERIOD	QUANT	3.3334E-005	Integration Period (s)
SEQUENCER	TOGGLE	TRUE	Run as Sequence
PSTATMODEL	IQUANT	4	Pstat Model
PSTATSECTION	LABEL	REF600-24079	Pstat Section
PSTATSERIALNO	LABEL	24079	Pstat Serial Number
CTRLMODE	IQUANT	1	Control Mode
ELECTROMETER	IQUANT	0	RE=0 or CS=1
IESTAB	IQUANT	2	I/E Stability
CASPEED	IQUANT	6	Control Amp Speed
CONVENTION	IQUANT	1	Current Convention
ICHRANGE	IQUANT	2	Ich Range
ICHRANGEMODE	TOGGLE	F	Ich Auto Range
ICHOFFSETENABLE	TOGGLE	F	Ich Offset Enable
ICHOFFSET	QUANT	0	Ich Offset (V)
ICHFILTER	IQUANT	2	Ich Filter
VCHRANGE	IQUANT	2	Vch Range
VCHRANGEMODE	TOGGLE	F	Vch Auto Range
VCHOFFSETENABLE	TOGGLE	F	Vch Offset Enable
VCHOFFSET	QUANT	0	Vch Offset (V)
VCHFILTER	IQUANT	2	Vch Filter
ACHRANGE	IQUANT	2	Ach Range
ACHOFFSETENABLE	TOGGLE	F	Ach Offset Enable
ACHOFFSET	QUANT	0	Ach Offset (V)
ACHFILTER	IQUANT	1	Ach Filter
IERANGELOWERLIMIT	IQUANT	1	I/E Range Lower Limit
IERANGEMODE	TOGGLE	F	I/E AutoRange
IERANGE	IQUANT	6	I/E Range
POSFEEDENABLE	TOGGLE	F	Positive Feedback IR Comp
POSFEEDRESISTANCE	QUANT	0	Positive Feedback Resistance (ohm)
ACHSELECT	IQUANT	0	Ach Select
SENSECABLEID	IQUANT	13	Sense Cable ID
PWRCABLEID	IQUANT	13	Power Cable ID
DCCALDATE	LABEL	6/30/2020	DC Calibration Date
ACCALDATE	LABEL	6/30/2020	AC Calibration Date
THERMOSELECT	IQUANT	1	Thermo Select
FRAMEWORKVERSION	LABEL	7.8.2	Framework Version
INSTRUMENTVERSION	LABEL	4.40	Instrument Version
CURVE	TABLE	101
	Pt	T	Vfwd	Vrev	Vstep	Ifwd	Irev	Idif	Sig	Ach	IERange	Over	Temp
	#	s	V	V	V	A	A	A	V	V	#	bits	deg C
	0	0.1	-3.24870E-001	-3.74875E-001	-3.49872E-001	-9.56436E-008	-1.86493E-007	9.08492E-008	-3.75000E-001	3.31873E-004	6	..........a	-327.68
	2	0.3	-3.20859E-001	-3.70824E-001	-3.45841E-001	-7.64215E-008	-1.74418E-007	9.79961E-008	-3.71000E-001	3.53373E-004	6	..........a	-327.68
	4	0.5	-3.16787E-001	-3.66901E-001	-3.41844E-001	-7.11878E-008	-1.67330E-007	9.61422E-008	-3.67000E-001	3.70373E-004	6	..........a	-327.68
	6	0.7	-3.12890E-001	-3.62846E-001	-3.37868E-001	-6.69876E-008	-1.60781E-007	9.37929E-008	-3.63000E-001	3.73873E-004	6	..........a	-327.68
	8	0.9	-3.08802E-001	-3.58871E-001	-3.33837E-001	-6.28884E-008	-1.54554E-007	9.16660E-008	-3.59000E-001	3.60873E-004	6	..........a	-327.68
	10	1.1	-3.04891E-001	-3.54833E-001	-3.29862E-001	-5.89236E-008	-1.48910E-007	8.99861E-008	-3.55000E-001	3.49873E-004	6	..........a	-327.68
	12	1.3	-3.00879E-001	-3.50884E-001	-3.25882E-001	-5.52324E-008	-1.43495E-007	8.82626E-008	-3.51000E-001	3.44873E-004	6	..........a	-327.68
	14	1.5	-2.96863E-001	-3.46872E-001	-3.21867E-001	-5.14946E-008	-1.37901E-007	8.64060E-008	-3.47000E-001	3.54373E-004	6	..........a	-327.68
	16	1.7	-2.92760E-001	-3.42904E-001	-3.17832E-001	-4.80289E-008	-1.32610E-007	8.45808E-008	-3.43000E-001	3.44873E-004	6	..........a	-327.68
	18	1.9	-2.88906E-001	-3.38865E-001	-3.13885E-001	-4.47061E-008	-1.27642E-007	8.29359E-008	-3.39000E-001	3.64873E-004	6	..........a	-327.68
	20	2.1	-2.84773E-001	-3.34879E-001	-3.09826E-001	-4.14710E-008	-1.22785E-007	8.13137E-008	-3.35000E-001	3.69373E-004	6	..........a	-327.68
	22	2.3	-2.80896E-001	-3.30837E-001	-3.05867E-001	-3.81066E-008	-1.18232E-007	8.01252E-008	-3.31000E-001	3.68873E-004	6	..........a	-327.68
	24	2.5	-2.76827E-001	-3.26880E-001	-3.01853E-001	-3.48348E-008	-1.13597E-007	7.87623E-008	-3.27000E-001	3.56206E-004	6	..........a	-327.68
	26	2.7	-2.72880E-001	-3.22865E-001	-2.97872E-001	-3.16428E-008	-1.09519E-007	7.78759E-008	-3.23000E-001	3.46706E-004	6	..........a	-327.68
	28	2.9	-2.68869E-001	-3.18913E-001	-2.93891E-001	-2.85057E-008	-1.05401E-007	7.68955E-008	-3.19000E-001	3.56373E-004	6	..........a	-327.68
	30	3.1	-2.64913E-001	-3.14900E-001	-2.89906E-001	-2.56657E-008	-1.01653E-007	7.59877E-008	-3.15000E-001	3.50706E-004	6	..........a	-327.68
	32	3.3	-2.60804E-001	-3.10889E-001	-2.85846E-001	-2.28440E-008	-9.81096E-008	7.52656E-008	-3.11000E-001	3.56373E-004	6	..........a	-327.68
	34	3.5	-2.56872E-001	-3.06855E-001	-2.81863E-001	-2.04057E-008	-9.45604E-008	7.41548E-008	-3.07000E-001	3.50706E-004	6	..........a	-327.68
	36	3.7	-2.52817E-001	-3.02897E-001	-2.77857E-001	-1.77673E-008	-9.14060E-008	7.36387E-008	-3.03000E-001	3.69706E-004	6	..........a	-327.68
	38	3.9	-2.48877E-001	-2.98867E-001	-2.73872E-001	-1.53354E-008	-8.78996E-008	7.25642E-008	-2.99000E-001	3.57039E-004	6	..........a	-327.68
	40	4.1	-2.44868E-001	-2.94872E-001	-2.69870E-001	-1.31204E-008	-8.49819E-008	7.18615E-008	-2.95000E-001	3.57706E-004	6	..........a	-327.68
	42	4.3	-2.40891E-001	-2.90851E-001	-2.65871E-001	-1.10222E-008	-8.20442E-008	7.10220E-008	-2.91000E-001	3.54373E-004	6	..........a	-327.68
	44	4.5	-2.36821E-001	-2.86895E-001	-2.61858E-001	-8.96122E-009	-7.91525E-008	7.01913E-008	-2.87000E-001	3.67206E-004	6	..........a	-327.68
	46	4.7	-2.32874E-001	-2.82838E-001	-2.57856E-001	-7.24901E-009	-7.64085E-008	6.91595E-008	-2.83000E-001	3.70206E-004	6	..........a	-327.68
	48	4.9	-2.28820E-001	-2.78892E-001	-2.53856E-001	-5.53779E-009	-7.36174E-008	6.80797E-008	-2.79000E-001	3.83539E-004	6	..........a	-327.68
	50	5.1	-2.24877E-001	-2.74868E-001	-2.49873E-001	-3.87858E-009	-7.11328E-008	6.72542E-008	-2.75000E-001	3.58873E-004	6	..........a	-327.68
	52	5.3	-2.20871E-001	-2.70858E-001	-2.45865E-001	-2.35038E-009	-6.82574E-008	6.59071E-008	-2.71000E-001	3.55039E-004	6	..........a	-327.68
	54	5.5	-2.16884E-001	-2.66825E-001	-2.41854E-001	-7.78849E-010	-6.58301E-008	6.50513E-008	-2.67000E-001	3.59706E-004	6	..........a	-327.68
	56	5.7	-2.12853E-001	-2.62864E-001	-2.37858E-001	5.71656E-010	-6.33628E-008	6.39345E-008	-2.63000E-001	3.59706E-004	6	..........a	-327.68
	58	5.9	-2.08865E-001	-2.58854E-001	-2.33860E-001	1.78681E-009	-6.08035E-008	6.25903E-008	-2.59000E-001	3.55539E-004	6	..........a	-327.68
	60	6.1	-2.04812E-001	-2.54892E-001	-2.29852E-001	2.90495E-009	-5.81828E-008	6.10878E-008	-2.55000E-001	3.45039E-004	6	..........a	-327.68
	62	6.3	-2.00878E-001	-2.50871E-001	-2.25874E-001	3.87874E-009	-5.60742E-008	5.99530E-008	-2.51000E-001	3.40039E-004	6	..........a	-327.68
	64	6.5	-1.96866E-001	-2.46851E-001	-2.21858E-001	4.92921E-009	-5.39290E-008	5.88582E-008	-2.47000E-001	3.49706E-004	6	..........a	-327.68
	66	6.7	-1.92880E-001	-2.42818E-001	-2.17849E-001	5.95234E-009	-5.16093E-008	5.75617E-008	-2.43000E-001	3.41039E-004	6	..........a	-327.68
	68	6.9	-1.88720E-001	-2.38900E-001	-2.13810E-001	7.05815E-009	-4.96561E-008	5.67142E-008	-2.39000E-001	3.33039E-004	6	..........a	-327.68
	70	7.1	-1.84878E-001	-2.34848E-001	-2.09863E-001	8.22830E-009	-4.79035E-008	5.61318E-008	-2.35000E-001	3.40873E-004	6	..........a	-327.68
	72	7.3	-1.80773E-001	-2.30880E-001	-2.05827E-001	9.13775E-009	-4.61186E-008	5.52564E-008	-2.31000E-001	3.43039E-004	6	..........a	-327.68
	74	7.5	-1.76846E-001	-2.26849E-001	-2.01847E-001	1.01235E-008	-4.40870E-008	5.42106E-008	-2.27000E-001	3.43873E-004	6	..........a	-327.68
	76	7.7	-1.72822E-001	-2.22879E-001	-1.97851E-001	1.08650E-008	-4.27605E-008	5.36255E-008	-2.23000E-001	3.27373E-004	6	..........a	-327.68
	78	7.9	-1.68866E-001	-2.18866E-001	-1.93866E-001	1.18154E-008	-4.12180E-008	5.30334E-008	-2.19000E-001	3.55039E-004	6	..........a	-327.68
	80	8.1	-1.64729E-001	-2.14899E-001	-1.89814E-001	1.27009E-008	-3.97358E-008	5.24367E-008	-2.15000E-001	3.43039E-004	6	..........a	-327.68
	82	8.3	-1.60883E-001	-2.10866E-001	-1.85875E-001	1.34466E-008	-3.83386E-008	5.17853E-008	-2.11000E-001	3.41706E-004	6	..........a	-327.68
	84	8.5	-1.56778E-001	-2.06884E-001	-1.81831E-001	1.43627E-008	-3.70418E-008	5.14045E-008	-2.07000E-001	3.43539E-004	6	..........a	-327.68
	86	8.7	-1.52873E-001	-2.02829E-001	-1.77851E-001	1.50942E-008	-3.57650E-008	5.08591E-008	-2.03000E-001	3.38873E-004	6	..........a	-327.68
	88	8.9	-1.48823E-001	-1.98890E-001	-1.73856E-001	1.58406E-008	-3.47328E-008	5.05734E-008	-1.99000E-001	3.45873E-004	6	..........a	-327.68
	90	9.1	-1.44856E-001	-1.94859E-001	-1.69858E-001	1.65717E-008	-3.35664E-008	5.01380E-008	-1.95000E-001	3.41539E-004	6	..........a	-327.68
	92	9.3	-1.40848E-001	-1.90901E-001	-1.65875E-001	1.72111E-008	-3.23385E-008	4.95496E-008	-1.91000E-001	3.30873E-004	6	..........a	-327.68
	94	9.5	-1.36874E-001	-1.86858E-001	-1.61866E-001	1.79689E-008	-3.14948E-008	4.94636E-008	-1.87000E-001	3.50373E-004	6	..........a	-327.68
	96	9.7	-1.32792E-001	-1.82880E-001	-1.57836E-001	1.86713E-008	-3.06683E-008	4.93396E-008	-1.83000E-001	3.40706E-004	6	..........a	-327.68
	98	9.9	-1.28866E-001	-1.78833E-001	-1.53849E-001	1.93667E-008	-2.98185E-008	4.91853E-008	-1.79000E-001	3.27206E-004	6	..........a	-327.68
	100	10.1	-1.24825E-001	-1.74883E-001	-1.49854E-001	2.00201E-008	-2.90791E-008	4.90992E-008	-1.75000E-001	3.44706E-004	6	..........a	-327.68