File: C-COM2/SWV_10Hz STD2 50  fgml 081020_#1.DTA
EXPLAIN
TAG	SQUARE_WAVE
TITLE	LABEL	Square Wave Voltammetry	Test Identifier
DATE	LABEL	8/10/2020	Date
TIME	LABEL	19:26:39	Time
NOTES	NOTES	1	Notes...
	 STD2 50  fg/mL 08102
PSTAT	PSTAT	REF600-24079	Potentiostat
VINIT	QUANT	-3.50000E-001	Initial E (V)
VFINAL	QUANT	-1.50000E-001	Final E (V)
STEPSIZE	QUANT	2.00000E+000	Step Size (mV)
TIMERRES	QUANT	3.33340E-005	&Timer Resolution
FREQUENCY	QUANT	1.00000E+001	Frequency (Hz)
PULSESIZE	QUANT	2.50000E+001	Pulse Size E (mV)
PULSEON	QUANT	1.00000E-001	Pulse &Time (s)
NOISEREJECT	TOGGLE	F	Noise Rejection
AREA	QUANT	2.00000E-002	Sample Area (cm^2)
IMODE	SELECTOR	1	I/E Range Mode
IRANGE	QUANT	1.00000E-003	Max Current (mA)
EQDELAY	IQUANT	10	Equil. Time (s)
IRCOMP	SELECTOR	0	IRComp
PFCOR	QUANT	5.00000E+001	PF Corr. (ohm)
CYCLES	IQUANT	101	C&ycles (#)
ELECTRODETYPE	SELECTOR	0	Electrode Type
STRIPPING	TOGGLE	F	Used for Stripping
POLARITY	TOGGLE	F	Signal Polarity
LINEFREQ	IQUANT	60	Line Frequency (Hz)
INTPERIOD	QUANT	3.3334E-005	Integration Period (s)
SEQUENCER	TOGGLE	TRUE	Run as Sequence
PSTATMODEL	IQUANT	4	Pstat Model
PSTATSECTION	LABEL	REF600-24079	Pstat Section
PSTATSERIALNO	LABEL	24079	Pstat Serial Number
CTRLMODE	IQUANT	1	Control Mode
ELECTROMETER	IQUANT	0	RE=0 or CS=1
IESTAB	IQUANT	2	I/E Stability
CASPEED	IQUANT	6	Control Amp Speed
CONVENTION	IQUANT	1	Current Convention
ICHRANGE	IQUANT	2	Ich Range
ICHRANGEMODE	TOGGLE	F	Ich Auto Range
ICHOFFSETENABLE	TOGGLE	F	Ich Offset Enable
ICHOFFSET	QUANT	0	Ich Offset (V)
ICHFILTER	IQUANT	2	Ich Filter
VCHRANGE	IQUANT	2	Vch Range
VCHRANGEMODE	TOGGLE	F	Vch Auto Range
VCHOFFSETENABLE	TOGGLE	F	Vch Offset Enable
VCHOFFSET	QUANT	0	Vch Offset (V)
VCHFILTER	IQUANT	2	Vch Filter
ACHRANGE	IQUANT	2	Ach Range
ACHOFFSETENABLE	TOGGLE	F	Ach Offset Enable
ACHOFFSET	QUANT	0	Ach Offset (V)
ACHFILTER	IQUANT	1	Ach Filter
IERANGELOWERLIMIT	IQUANT	1	I/E Range Lower Limit
IERANGEMODE	TOGGLE	F	I/E AutoRange
IERANGE	IQUANT	6	I/E Range
POSFEEDENABLE	TOGGLE	F	Positive Feedback IR Comp
POSFEEDRESISTANCE	QUANT	0	Positive Feedback Resistance (ohm)
ACHSELECT	IQUANT	0	Ach Select
SENSECABLEID	IQUANT	13	Sense Cable ID
PWRCABLEID	IQUANT	13	Power Cable ID
DCCALDATE	LABEL	6/30/2020	DC Calibration Date
ACCALDATE	LABEL	6/30/2020	AC Calibration Date
THERMOSELECT	IQUANT	1	Thermo Select
FRAMEWORKVERSION	LABEL	7.8.2	Framework Version
INSTRUMENTVERSION	LABEL	4.40	Instrument Version
CURVE	TABLE	101
	Pt	T	Vfwd	Vrev	Vstep	Ifwd	Irev	Idif	Sig	Ach	IERange	Over	Temp
	#	s	V	V	V	A	A	A	V	V	#	bits	deg C
	0	0.1	-3.24874E-001	-3.74889E-001	-3.49882E-001	-1.48200E-007	-2.85553E-007	1.37352E-007	-3.75000E-001	3.56539E-004	6	..........a	-327.68
	2	0.3	-3.20880E-001	-3.70806E-001	-3.45843E-001	-1.27034E-007	-2.66782E-007	1.39748E-007	-3.71000E-001	3.70206E-004	6	..........a	-327.68
	4	0.5	-3.16758E-001	-3.66926E-001	-3.41842E-001	-1.18753E-007	-2.52509E-007	1.33756E-007	-3.67000E-001	3.59706E-004	6	..........a	-327.68
	6	0.7	-3.12890E-001	-3.62815E-001	-3.37853E-001	-1.10948E-007	-2.39736E-007	1.28788E-007	-3.63000E-001	3.67706E-004	6	..........a	-327.68
	8	0.9	-3.08846E-001	-3.58887E-001	-3.33866E-001	-1.04013E-007	-2.27966E-007	1.23954E-007	-3.59000E-001	3.56873E-004	6	..........a	-327.68
	10	1.1	-3.04887E-001	-3.54838E-001	-3.29863E-001	-9.73738E-008	-2.16795E-007	1.19421E-007	-3.55000E-001	3.56873E-004	6	..........a	-327.68
	12	1.3	-3.00879E-001	-3.50878E-001	-3.25878E-001	-9.10513E-008	-2.06554E-007	1.15502E-007	-3.51000E-001	3.60873E-004	6	..........a	-327.68
	14	1.5	-2.96881E-001	-3.46873E-001	-3.21877E-001	-8.49962E-008	-1.97039E-007	1.12043E-007	-3.47000E-001	3.46873E-004	6	..........a	-327.68
	16	1.7	-2.92758E-001	-3.42915E-001	-3.17837E-001	-7.90711E-008	-1.87830E-007	1.08759E-007	-3.43000E-001	3.56706E-004	6	..........a	-327.68
	18	1.9	-2.88916E-001	-3.38852E-001	-3.13884E-001	-7.35181E-008	-1.79120E-007	1.05601E-007	-3.39000E-001	3.66706E-004	6	..........a	-327.68
	20	2.1	-2.84813E-001	-3.34895E-001	-3.09854E-001	-6.82111E-008	-1.71233E-007	1.03022E-007	-3.35000E-001	3.50373E-004	6	..........a	-327.68
	22	2.3	-2.80923E-001	-3.30838E-001	-3.05881E-001	-6.31525E-008	-1.63383E-007	1.00230E-007	-3.31000E-001	3.56373E-004	6	..........a	-327.68
	24	2.5	-2.76871E-001	-3.26886E-001	-3.01879E-001	-5.83905E-008	-1.56307E-007	9.79168E-008	-3.27000E-001	3.66539E-004	6	..........a	-327.68
	26	2.7	-2.72878E-001	-3.22875E-001	-2.97876E-001	-5.34892E-008	-1.49590E-007	9.61012E-008	-3.23000E-001	3.55039E-004	6	..........a	-327.68
	28	2.9	-2.68875E-001	-3.18922E-001	-2.93898E-001	-4.91197E-008	-1.43368E-007	9.42486E-008	-3.19000E-001	3.50539E-004	6	..........a	-327.68
	30	3.1	-2.64905E-001	-3.14873E-001	-2.89889E-001	-4.49091E-008	-1.37150E-007	9.22411E-008	-3.15000E-001	3.45039E-004	6	..........a	-327.68
	32	3.3	-2.60818E-001	-3.10892E-001	-2.85855E-001	-4.06596E-008	-1.31438E-007	9.07789E-008	-3.11000E-001	3.58539E-004	6	..........a	-327.68
	34	3.5	-2.56874E-001	-3.06858E-001	-2.81866E-001	-3.68634E-008	-1.26225E-007	8.93614E-008	-3.07000E-001	3.62373E-004	6	..........a	-327.68
	36	3.7	-2.52826E-001	-3.02908E-001	-2.77867E-001	-3.30833E-008	-1.21020E-007	8.79372E-008	-3.03000E-001	3.69039E-004	6	..........a	-327.68
	38	3.9	-2.48887E-001	-2.98867E-001	-2.73877E-001	-2.99159E-008	-1.16638E-007	8.67220E-008	-2.99000E-001	3.64039E-004	6	..........a	-327.68
	40	4.1	-2.44881E-001	-2.94870E-001	-2.69875E-001	-2.64531E-008	-1.11838E-007	8.53849E-008	-2.95000E-001	3.73873E-004	6	..........a	-327.68
	42	4.3	-2.40892E-001	-2.90827E-001	-2.65859E-001	-2.35504E-008	-1.07687E-007	8.41370E-008	-2.91000E-001	3.73706E-004	6	..........a	-327.68
	44	4.5	-2.36853E-001	-2.86894E-001	-2.61873E-001	-2.08504E-008	-1.03376E-007	8.25255E-008	-2.87000E-001	3.50539E-004	6	..........a	-327.68
	46	4.7	-2.32872E-001	-2.82823E-001	-2.57847E-001	-1.84884E-008	-9.96184E-008	8.11300E-008	-2.83000E-001	3.58873E-004	6	..........a	-327.68
	48	4.9	-2.28781E-001	-2.78901E-001	-2.53841E-001	-1.61251E-008	-9.55282E-008	7.94031E-008	-2.79000E-001	3.53373E-004	6	..........a	-327.68
	50	5.1	-2.24896E-001	-2.74859E-001	-2.49877E-001	-1.43052E-008	-9.19158E-008	7.76105E-008	-2.75000E-001	3.49539E-004	6	..........a	-327.68
	52	5.3	-2.20869E-001	-2.70895E-001	-2.45882E-001	-1.23180E-008	-8.80153E-008	7.56973E-008	-2.71000E-001	3.61206E-004	6	..........a	-327.68
	54	5.5	-2.16900E-001	-2.66812E-001	-2.41856E-001	-1.05988E-008	-8.42278E-008	7.36290E-008	-2.67000E-001	3.58873E-004	6	..........a	-327.68
	56	5.7	-2.12804E-001	-2.62884E-001	-2.37844E-001	-8.70252E-009	-8.08697E-008	7.21672E-008	-2.63000E-001	3.54373E-004	6	..........a	-327.68
	58	5.9	-2.08879E-001	-2.58847E-001	-2.33863E-001	-7.18666E-009	-7.73486E-008	7.01619E-008	-2.59000E-001	3.64373E-004	6	..........a	-327.68
	60	6.1	-2.04833E-001	-2.54910E-001	-2.29871E-001	-5.64347E-009	-7.41195E-008	6.84760E-008	-2.55000E-001	3.71373E-004	6	..........a	-327.68
	62	6.3	-2.00885E-001	-2.50860E-001	-2.25872E-001	-4.10060E-009	-7.08938E-008	6.67932E-008	-2.51000E-001	3.60539E-004	6	..........a	-327.68
	64	6.5	-1.96868E-001	-2.46875E-001	-2.21871E-001	-2.67776E-009	-6.78187E-008	6.51410E-008	-2.47000E-001	3.61373E-004	6	..........a	-327.68
	66	6.7	-1.92879E-001	-2.42816E-001	-2.17847E-001	-1.28258E-009	-6.50724E-008	6.37898E-008	-2.43000E-001	3.64706E-004	6	..........a	-327.68
	68	6.9	-1.88773E-001	-2.38906E-001	-2.13840E-001	1.56270E-010	-6.21607E-008	6.23169E-008	-2.39000E-001	3.55373E-004	6	..........a	-327.68
	70	7.1	-1.84889E-001	-2.34846E-001	-2.09867E-001	1.36709E-009	-5.95677E-008	6.09348E-008	-2.35000E-001	3.55039E-004	6	..........a	-327.68
	72	7.3	-1.80795E-001	-2.30853E-001	-2.05824E-001	2.57958E-009	-5.71434E-008	5.97229E-008	-2.31000E-001	3.69206E-004	6	..........a	-327.68
	74	7.5	-1.76853E-001	-2.26844E-001	-2.01848E-001	3.56337E-009	-5.48881E-008	5.84514E-008	-2.27000E-001	3.57539E-004	6	..........a	-327.68
	76	7.7	-1.72864E-001	-2.22880E-001	-1.97872E-001	4.53616E-009	-5.27225E-008	5.72586E-008	-2.23000E-001	3.44873E-004	6	..........a	-327.68
	78	7.9	-1.68878E-001	-2.18873E-001	-1.93876E-001	6.14770E-009	-5.00618E-008	5.62095E-008	-2.19000E-001	3.50539E-004	6	..........a	-327.68
	80	8.1	-1.64729E-001	-2.14904E-001	-1.89816E-001	6.17737E-009	-4.92153E-008	5.53927E-008	-2.15000E-001	3.43206E-004	6	..........a	-327.68
	82	8.3	-1.60903E-001	-2.10868E-001	-1.85885E-001	7.78591E-009	-4.71784E-008	5.49643E-008	-2.11000E-001	3.42539E-004	6	..........a	-327.68
	84	8.5	-1.56769E-001	-2.06873E-001	-1.81821E-001	8.56734E-009	-4.54745E-008	5.40419E-008	-2.07000E-001	3.44373E-004	6	..........a	-327.68
	86	8.7	-1.52877E-001	-2.02845E-001	-1.77861E-001	9.58214E-009	-4.38700E-008	5.34521E-008	-2.03000E-001	3.63206E-004	6	..........a	-327.68
	88	8.9	-1.48822E-001	-1.98889E-001	-1.73856E-001	1.05946E-008	-4.24345E-008	5.30291E-008	-1.99000E-001	3.49206E-004	6	..........a	-327.68
	90	9.1	-1.44867E-001	-1.94864E-001	-1.69866E-001	1.12323E-008	-4.10216E-008	5.22540E-008	-1.95000E-001	3.48039E-004	6	..........a	-327.68
	92	9.3	-1.40870E-001	-1.90904E-001	-1.65887E-001	1.23105E-008	-3.96388E-008	5.19493E-008	-1.91000E-001	3.50873E-004	6	..........a	-327.68
	94	9.5	-1.36875E-001	-1.86813E-001	-1.61844E-001	1.30829E-008	-3.85310E-008	5.16139E-008	-1.87000E-001	3.40373E-004	6	..........a	-327.68
	96	9.7	-1.32727E-001	-1.82879E-001	-1.57803E-001	1.38854E-008	-3.72435E-008	5.11288E-008	-1.83000E-001	3.42706E-004	6	..........a	-327.68
	98	9.9	-1.28818E-001	-1.78819E-001	-1.53819E-001	1.43341E-008	-3.61080E-008	5.04421E-008	-1.79000E-001	3.31873E-004	6	..........a	-327.68
	100	10.1	-1.24818E-001	-1.74885E-001	-1.49851E-001	1.52579E-008	-3.49655E-008	5.02234E-008	-1.75000E-001	3.46873E-004	6	..........a	-327.68