File: C-COM2/SWV_10Hz STD2 10  fgml 081020_#7.DTA
EXPLAIN
TAG	SQUARE_WAVE
TITLE	LABEL	Square Wave Voltammetry	Test Identifier
DATE	LABEL	8/10/2020	Date
TIME	LABEL	18:11:01	Time
NOTES	NOTES	1	Notes...
	 STD2, 10  fg/mL 08102
PSTAT	PSTAT	REF600-24079	Potentiostat
VINIT	QUANT	-3.50000E-001	Initial E (V)
VFINAL	QUANT	-1.50000E-001	Final E (V)
STEPSIZE	QUANT	2.00000E+000	Step Size (mV)
TIMERRES	QUANT	3.33340E-005	&Timer Resolution
FREQUENCY	QUANT	1.00000E+001	Frequency (Hz)
PULSESIZE	QUANT	2.50000E+001	Pulse Size E (mV)
PULSEON	QUANT	1.00000E-001	Pulse &Time (s)
NOISEREJECT	TOGGLE	F	Noise Rejection
AREA	QUANT	2.00000E-002	Sample Area (cm^2)
IMODE	SELECTOR	1	I/E Range Mode
IRANGE	QUANT	1.00000E-003	Max Current (mA)
EQDELAY	IQUANT	10	Equil. Time (s)
IRCOMP	SELECTOR	0	IRComp
PFCOR	QUANT	5.00000E+001	PF Corr. (ohm)
CYCLES	IQUANT	101	C&ycles (#)
ELECTRODETYPE	SELECTOR	0	Electrode Type
STRIPPING	TOGGLE	F	Used for Stripping
POLARITY	TOGGLE	F	Signal Polarity
LINEFREQ	IQUANT	60	Line Frequency (Hz)
INTPERIOD	QUANT	3.3334E-005	Integration Period (s)
SEQUENCER	TOGGLE	TRUE	Run as Sequence
PSTATMODEL	IQUANT	4	Pstat Model
PSTATSECTION	LABEL	REF600-24079	Pstat Section
PSTATSERIALNO	LABEL	24079	Pstat Serial Number
CTRLMODE	IQUANT	1	Control Mode
ELECTROMETER	IQUANT	0	RE=0 or CS=1
IESTAB	IQUANT	2	I/E Stability
CASPEED	IQUANT	6	Control Amp Speed
CONVENTION	IQUANT	1	Current Convention
ICHRANGE	IQUANT	2	Ich Range
ICHRANGEMODE	TOGGLE	F	Ich Auto Range
ICHOFFSETENABLE	TOGGLE	F	Ich Offset Enable
ICHOFFSET	QUANT	0	Ich Offset (V)
ICHFILTER	IQUANT	2	Ich Filter
VCHRANGE	IQUANT	2	Vch Range
VCHRANGEMODE	TOGGLE	F	Vch Auto Range
VCHOFFSETENABLE	TOGGLE	F	Vch Offset Enable
VCHOFFSET	QUANT	0	Vch Offset (V)
VCHFILTER	IQUANT	2	Vch Filter
ACHRANGE	IQUANT	2	Ach Range
ACHOFFSETENABLE	TOGGLE	F	Ach Offset Enable
ACHOFFSET	QUANT	0	Ach Offset (V)
ACHFILTER	IQUANT	1	Ach Filter
IERANGELOWERLIMIT	IQUANT	1	I/E Range Lower Limit
IERANGEMODE	TOGGLE	F	I/E AutoRange
IERANGE	IQUANT	6	I/E Range
POSFEEDENABLE	TOGGLE	F	Positive Feedback IR Comp
POSFEEDRESISTANCE	QUANT	0	Positive Feedback Resistance (ohm)
ACHSELECT	IQUANT	0	Ach Select
SENSECABLEID	IQUANT	13	Sense Cable ID
PWRCABLEID	IQUANT	13	Power Cable ID
DCCALDATE	LABEL	6/30/2020	DC Calibration Date
ACCALDATE	LABEL	6/30/2020	AC Calibration Date
THERMOSELECT	IQUANT	1	Thermo Select
FRAMEWORKVERSION	LABEL	7.8.2	Framework Version
INSTRUMENTVERSION	LABEL	4.40	Instrument Version
CURVE	TABLE	101
	Pt	T	Vfwd	Vrev	Vstep	Ifwd	Irev	Idif	Sig	Ach	IERange	Over	Temp
	#	s	V	V	V	A	A	A	V	V	#	bits	deg C
	0	0.1	-3.24884E-001	-3.74882E-001	-3.49883E-001	-8.56096E-008	-1.65316E-007	7.97065E-008	-3.75000E-001	3.62706E-004	6	..........a	-327.68
	2	0.3	-3.20878E-001	-3.70790E-001	-3.45834E-001	-6.72873E-008	-1.54387E-007	8.70994E-008	-3.71000E-001	3.75539E-004	6	..........a	-327.68
	4	0.5	-3.16787E-001	-3.66909E-001	-3.41848E-001	-6.25627E-008	-1.48320E-007	8.57569E-008	-3.67000E-001	3.79039E-004	6	..........a	-327.68
	6	0.7	-3.12887E-001	-3.62819E-001	-3.37853E-001	-5.88976E-008	-1.42970E-007	8.40720E-008	-3.63000E-001	3.81706E-004	6	..........a	-327.68
	8	0.9	-3.08863E-001	-3.58888E-001	-3.33876E-001	-5.54838E-008	-1.37749E-007	8.22648E-008	-3.59000E-001	3.72539E-004	6	..........a	-327.68
	10	1.1	-3.04903E-001	-3.54840E-001	-3.29872E-001	-5.21701E-008	-1.33026E-007	8.08563E-008	-3.55000E-001	3.66539E-004	6	..........a	-327.68
	12	1.3	-3.00886E-001	-3.50879E-001	-3.25882E-001	-4.87890E-008	-1.28098E-007	7.93091E-008	-3.51000E-001	3.60539E-004	6	..........a	-327.68
	14	1.5	-2.96888E-001	-3.46881E-001	-3.21884E-001	-4.58826E-008	-1.23810E-007	7.79276E-008	-3.47000E-001	3.75039E-004	6	..........a	-327.68
	16	1.7	-2.92735E-001	-3.42880E-001	-3.17807E-001	-4.28222E-008	-1.19386E-007	7.65634E-008	-3.43000E-001	3.83873E-004	6	..........a	-327.68
	18	1.9	-2.88924E-001	-3.38841E-001	-3.13883E-001	-3.97201E-008	-1.15097E-007	7.53769E-008	-3.39000E-001	3.59873E-004	6	..........a	-327.68
	20	2.1	-2.84789E-001	-3.34889E-001	-3.09839E-001	-3.67408E-008	-1.11241E-007	7.45005E-008	-3.35000E-001	3.70873E-004	6	..........a	-327.68
	22	2.3	-2.80908E-001	-3.30828E-001	-3.05868E-001	-3.38944E-008	-1.07368E-007	7.34733E-008	-3.31000E-001	3.56206E-004	6	..........a	-327.68
	24	2.5	-2.76871E-001	-3.26898E-001	-3.01885E-001	-3.09974E-008	-1.03637E-007	7.26399E-008	-3.27000E-001	3.63539E-004	6	..........a	-327.68
	26	2.7	-2.72889E-001	-3.22870E-001	-2.97879E-001	-2.84850E-008	-1.00090E-007	7.16051E-008	-3.23000E-001	3.52539E-004	6	..........a	-327.68
	28	2.9	-2.68878E-001	-3.18885E-001	-2.93882E-001	-2.57144E-008	-9.69331E-008	7.12187E-008	-3.19000E-001	3.63873E-004	6	..........a	-327.68
	30	3.1	-2.64924E-001	-3.14895E-001	-2.89910E-001	-2.30644E-008	-9.37263E-008	7.06620E-008	-3.15000E-001	3.64039E-004	6	..........a	-327.68
	32	3.3	-2.60828E-001	-3.10895E-001	-2.85862E-001	-2.03540E-008	-9.06489E-008	7.02949E-008	-3.11000E-001	3.62039E-004	6	..........a	-327.68
	34	3.5	-2.56881E-001	-3.06838E-001	-2.81859E-001	-1.82897E-008	-8.79183E-008	6.96285E-008	-3.07000E-001	3.50706E-004	6	..........a	-327.68
	36	3.7	-2.52839E-001	-3.02909E-001	-2.77874E-001	-1.58071E-008	-8.52229E-008	6.94158E-008	-3.03000E-001	3.54873E-004	6	..........a	-327.68
	38	3.9	-2.48891E-001	-2.98876E-001	-2.73883E-001	-1.37185E-008	-8.26336E-008	6.89151E-008	-2.99000E-001	3.55539E-004	6	..........a	-327.68
	40	4.1	-2.44877E-001	-2.94870E-001	-2.69873E-001	-1.16119E-008	-8.01009E-008	6.84890E-008	-2.95000E-001	3.49373E-004	6	..........a	-327.68
	42	4.3	-2.40910E-001	-2.90826E-001	-2.65868E-001	-1.00157E-008	-7.74209E-008	6.74052E-008	-2.91000E-001	3.68206E-004	6	..........a	-327.68
	44	4.5	-2.36878E-001	-2.86885E-001	-2.61882E-001	-8.02210E-009	-7.50963E-008	6.70742E-008	-2.87000E-001	3.69539E-004	6	..........a	-327.68
	46	4.7	-2.32873E-001	-2.82827E-001	-2.57850E-001	-6.32622E-009	-7.28954E-008	6.65691E-008	-2.83000E-001	3.77373E-004	6	..........a	-327.68
	48	4.9	-2.28810E-001	-2.78884E-001	-2.53847E-001	-4.90837E-009	-7.06641E-008	6.57557E-008	-2.79000E-001	3.87206E-004	6	..........a	-327.68
	50	5.1	-2.24888E-001	-2.74859E-001	-2.49873E-001	-3.39618E-009	-6.82624E-008	6.48663E-008	-2.75000E-001	3.86206E-004	6	..........a	-327.68
	52	5.3	-2.20868E-001	-2.70877E-001	-2.45872E-001	-2.28104E-009	-6.62058E-008	6.39248E-008	-2.71000E-001	3.64706E-004	6	..........a	-327.68
	54	5.5	-2.16911E-001	-2.66799E-001	-2.41855E-001	-8.84196E-010	-6.37732E-008	6.28890E-008	-2.67000E-001	3.59039E-004	6	..........a	-327.68
	56	5.7	-2.12874E-001	-2.62863E-001	-2.37868E-001	3.02955E-010	-6.14809E-008	6.17839E-008	-2.63000E-001	3.55039E-004	6	..........a	-327.68
	58	5.9	-2.08889E-001	-2.58829E-001	-2.33859E-001	1.42810E-009	-5.91773E-008	6.06054E-008	-2.59000E-001	3.44373E-004	6	..........a	-327.68
	60	6.1	-2.04833E-001	-2.54890E-001	-2.29861E-001	2.35522E-009	-5.71510E-008	5.95062E-008	-2.55000E-001	3.41539E-004	6	..........a	-327.68
	62	6.3	-2.00897E-001	-2.50849E-001	-2.25873E-001	3.23866E-009	-5.48264E-008	5.80651E-008	-2.51000E-001	3.37373E-004	6	..........a	-327.68
	64	6.5	-1.96877E-001	-2.46873E-001	-2.21875E-001	4.33313E-009	-5.30252E-008	5.73583E-008	-2.47000E-001	3.52873E-004	6	..........a	-327.68
	66	6.7	-1.92906E-001	-2.42793E-001	-2.17849E-001	5.23392E-009	-5.10963E-008	5.63302E-008	-2.43000E-001	3.42373E-004	6	..........a	-327.68
	68	6.9	-1.88782E-001	-2.38892E-001	-2.13837E-001	5.83499E-009	-4.92390E-008	5.50740E-008	-2.39000E-001	3.42539E-004	6	..........a	-327.68
	70	7.1	-1.84910E-001	-2.34820E-001	-2.09865E-001	6.82012E-009	-4.76748E-008	5.44949E-008	-2.35000E-001	3.41873E-004	6	..........a	-327.68
	72	7.3	-1.80782E-001	-2.30874E-001	-2.05828E-001	7.88992E-009	-4.58886E-008	5.37785E-008	-2.31000E-001	3.50039E-004	6	..........a	-327.68
	74	7.5	-1.76871E-001	-2.26825E-001	-2.01848E-001	8.91905E-009	-4.42620E-008	5.31811E-008	-2.27000E-001	3.31539E-004	6	..........a	-327.68
	76	7.7	-1.72850E-001	-2.22876E-001	-1.97863E-001	9.61347E-009	-4.27312E-008	5.23447E-008	-2.23000E-001	3.41039E-004	6	..........a	-327.68
	78	7.9	-1.68881E-001	-2.18860E-001	-1.93871E-001	1.03249E-008	-4.13083E-008	5.16332E-008	-2.19000E-001	3.24039E-004	6	..........a	-327.68
	80	8.1	-1.64702E-001	-2.14897E-001	-1.89799E-001	1.14744E-008	-4.00305E-008	5.15049E-008	-2.15000E-001	3.36873E-004	6	..........a	-327.68
	82	8.3	-1.60914E-001	-2.10859E-001	-1.85886E-001	1.21385E-008	-3.87103E-008	5.08488E-008	-2.11000E-001	3.52206E-004	6	..........a	-327.68
	84	8.5	-1.56812E-001	-2.06877E-001	-1.81844E-001	1.28412E-008	-3.72895E-008	5.01307E-008	-2.07000E-001	3.36539E-004	6	..........a	-327.68
	86	8.7	-1.52886E-001	-2.02833E-001	-1.77859E-001	1.37143E-008	-3.62390E-008	4.99534E-008	-2.03000E-001	3.36539E-004	6	..........a	-327.68
	88	8.9	-1.48816E-001	-1.98891E-001	-1.73854E-001	1.44804E-008	-3.51102E-008	4.95906E-008	-1.99000E-001	3.31373E-004	6	..........a	-327.68
	90	9.1	-1.44876E-001	-1.94859E-001	-1.69867E-001	1.54395E-008	-3.40651E-008	4.95046E-008	-1.95000E-001	3.41373E-004	6	..........a	-327.68
	92	9.3	-1.40875E-001	-1.90907E-001	-1.65891E-001	1.60306E-008	-3.32363E-008	4.92669E-008	-1.91000E-001	3.31039E-004	6	..........a	-327.68
	94	9.5	-1.36883E-001	-1.86843E-001	-1.61863E-001	1.67137E-008	-3.21992E-008	4.89129E-008	-1.87000E-001	3.36539E-004	6	..........a	-327.68
	96	9.7	-1.32788E-001	-1.82886E-001	-1.57837E-001	1.72454E-008	-3.15391E-008	4.87845E-008	-1.83000E-001	3.38206E-004	6	..........a	-327.68
	98	9.9	-1.28872E-001	-1.78836E-001	-1.53854E-001	1.80755E-008	-3.07187E-008	4.87942E-008	-1.79000E-001	3.48039E-004	6	..........a	-327.68
	100	10.1	-1.24850E-001	-1.74896E-001	-1.49873E-001	1.84286E-008	-2.98069E-008	4.82355E-008	-1.75000E-001	3.42706E-004	6	..........a	-327.68