File: C-COM2/SWV_10Hz STD2 100  fgml 081020_#4.DTA
EXPLAIN
TAG	SQUARE_WAVE
TITLE	LABEL	Square Wave Voltammetry	Test Identifier
DATE	LABEL	8/10/2020	Date
TIME	LABEL	20:42:29	Time
NOTES	NOTES	1	Notes...
	 STD2 100  fg/mL 08102
PSTAT	PSTAT	REF600-24079	Potentiostat
VINIT	QUANT	-3.50000E-001	Initial E (V)
VFINAL	QUANT	-1.50000E-001	Final E (V)
STEPSIZE	QUANT	2.00000E+000	Step Size (mV)
TIMERRES	QUANT	3.33340E-005	&Timer Resolution
FREQUENCY	QUANT	1.00000E+001	Frequency (Hz)
PULSESIZE	QUANT	2.50000E+001	Pulse Size E (mV)
PULSEON	QUANT	1.00000E-001	Pulse &Time (s)
NOISEREJECT	TOGGLE	F	Noise Rejection
AREA	QUANT	2.00000E-002	Sample Area (cm^2)
IMODE	SELECTOR	1	I/E Range Mode
IRANGE	QUANT	1.00000E-003	Max Current (mA)
EQDELAY	IQUANT	10	Equil. Time (s)
IRCOMP	SELECTOR	0	IRComp
PFCOR	QUANT	5.00000E+001	PF Corr. (ohm)
CYCLES	IQUANT	101	C&ycles (#)
ELECTRODETYPE	SELECTOR	0	Electrode Type
STRIPPING	TOGGLE	F	Used for Stripping
POLARITY	TOGGLE	F	Signal Polarity
LINEFREQ	IQUANT	60	Line Frequency (Hz)
INTPERIOD	QUANT	3.3334E-005	Integration Period (s)
SEQUENCER	TOGGLE	TRUE	Run as Sequence
PSTATMODEL	IQUANT	4	Pstat Model
PSTATSECTION	LABEL	REF600-24079	Pstat Section
PSTATSERIALNO	LABEL	24079	Pstat Serial Number
CTRLMODE	IQUANT	1	Control Mode
ELECTROMETER	IQUANT	0	RE=0 or CS=1
IESTAB	IQUANT	2	I/E Stability
CASPEED	IQUANT	6	Control Amp Speed
CONVENTION	IQUANT	1	Current Convention
ICHRANGE	IQUANT	2	Ich Range
ICHRANGEMODE	TOGGLE	F	Ich Auto Range
ICHOFFSETENABLE	TOGGLE	F	Ich Offset Enable
ICHOFFSET	QUANT	0	Ich Offset (V)
ICHFILTER	IQUANT	2	Ich Filter
VCHRANGE	IQUANT	2	Vch Range
VCHRANGEMODE	TOGGLE	F	Vch Auto Range
VCHOFFSETENABLE	TOGGLE	F	Vch Offset Enable
VCHOFFSET	QUANT	0	Vch Offset (V)
VCHFILTER	IQUANT	2	Vch Filter
ACHRANGE	IQUANT	2	Ach Range
ACHOFFSETENABLE	TOGGLE	F	Ach Offset Enable
ACHOFFSET	QUANT	0	Ach Offset (V)
ACHFILTER	IQUANT	1	Ach Filter
IERANGELOWERLIMIT	IQUANT	1	I/E Range Lower Limit
IERANGEMODE	TOGGLE	F	I/E AutoRange
IERANGE	IQUANT	6	I/E Range
POSFEEDENABLE	TOGGLE	F	Positive Feedback IR Comp
POSFEEDRESISTANCE	QUANT	0	Positive Feedback Resistance (ohm)
ACHSELECT	IQUANT	0	Ach Select
SENSECABLEID	IQUANT	13	Sense Cable ID
PWRCABLEID	IQUANT	13	Power Cable ID
DCCALDATE	LABEL	6/30/2020	DC Calibration Date
ACCALDATE	LABEL	6/30/2020	AC Calibration Date
THERMOSELECT	IQUANT	1	Thermo Select
FRAMEWORKVERSION	LABEL	7.8.2	Framework Version
INSTRUMENTVERSION	LABEL	4.40	Instrument Version
CURVE	TABLE	101
	Pt	T	Vfwd	Vrev	Vstep	Ifwd	Irev	Idif	Sig	Ach	IERange	Over	Temp
	#	s	V	V	V	A	A	A	V	V	#	bits	deg C
	0	0.1	-3.24886E-001	-3.74921E-001	-3.49903E-001	-9.12487E-008	-1.88541E-007	9.72920E-008	-3.75000E-001	3.81873E-004	6	..........a	-327.68
	2	0.3	-3.20904E-001	-3.70792E-001	-3.45848E-001	-7.19432E-008	-1.75811E-007	1.03868E-007	-3.71000E-001	4.02373E-004	6	..........a	-327.68
	4	0.5	-3.16803E-001	-3.66954E-001	-3.41879E-001	-6.65395E-008	-1.67820E-007	1.01280E-007	-3.67000E-001	3.99706E-004	6	..........a	-327.68
	6	0.7	-3.12912E-001	-3.62819E-001	-3.37866E-001	-6.19600E-008	-1.60198E-007	9.82382E-008	-3.63000E-001	4.11539E-004	6	..........a	-327.68
	8	0.9	-3.08893E-001	-3.58907E-001	-3.33900E-001	-5.78551E-008	-1.53590E-007	9.57348E-008	-3.59000E-001	3.90873E-004	6	..........a	-327.68
	10	1.1	-3.04913E-001	-3.54860E-001	-3.29887E-001	-5.38839E-008	-1.47151E-007	9.32668E-008	-3.55000E-001	3.91873E-004	6	..........a	-327.68
	12	1.3	-3.00918E-001	-3.50916E-001	-3.25917E-001	-5.00271E-008	-1.41147E-007	9.11203E-008	-3.51000E-001	3.94039E-004	6	..........a	-327.68
	14	1.5	-2.96919E-001	-3.46895E-001	-3.21907E-001	-4.64663E-008	-1.35179E-007	8.87126E-008	-3.47000E-001	3.83206E-004	6	..........a	-327.68
	16	1.7	-2.92781E-001	-3.42937E-001	-3.17859E-001	-4.29496E-008	-1.29243E-007	8.62930E-008	-3.43000E-001	3.82706E-004	6	..........a	-327.68
	18	1.9	-2.88934E-001	-3.38860E-001	-3.13897E-001	-3.96038E-008	-1.24167E-007	8.45628E-008	-3.39000E-001	3.96539E-004	6	..........a	-327.68
	20	2.1	-2.84827E-001	-3.34904E-001	-3.09866E-001	-3.61667E-008	-1.18928E-007	8.27615E-008	-3.35000E-001	3.99873E-004	6	..........a	-327.68
	22	2.3	-2.80921E-001	-3.30831E-001	-3.05876E-001	-3.27666E-008	-1.14100E-007	8.13334E-008	-3.31000E-001	3.84206E-004	6	..........a	-327.68
	24	2.5	-2.76897E-001	-3.26911E-001	-3.01904E-001	-2.99202E-008	-1.09310E-007	7.93898E-008	-3.27000E-001	3.87706E-004	6	..........a	-327.68
	26	2.7	-2.72898E-001	-3.22887E-001	-2.97893E-001	-2.65818E-008	-1.04852E-007	7.82699E-008	-3.23000E-001	3.90706E-004	6	..........a	-327.68
	28	2.9	-2.68912E-001	-3.18948E-001	-2.93930E-001	-2.36061E-008	-1.00787E-007	7.71805E-008	-3.19000E-001	3.77539E-004	6	..........a	-327.68
	30	3.1	-2.64921E-001	-3.14905E-001	-2.89913E-001	-2.09194E-008	-9.67414E-008	7.58220E-008	-3.15000E-001	3.81039E-004	6	..........a	-327.68
	32	3.3	-2.60842E-001	-3.10907E-001	-2.85875E-001	-1.83798E-008	-9.29172E-008	7.45375E-008	-3.11000E-001	3.91873E-004	6	..........a	-327.68
	34	3.5	-2.56895E-001	-3.06852E-001	-2.81874E-001	-1.55934E-008	-8.94981E-008	7.39047E-008	-3.07000E-001	3.77706E-004	6	..........a	-327.68
	36	3.7	-2.52880E-001	-3.02933E-001	-2.77906E-001	-1.31144E-008	-8.57983E-008	7.26839E-008	-3.03000E-001	3.88039E-004	6	..........a	-327.68
	38	3.9	-2.48915E-001	-2.98890E-001	-2.73903E-001	-1.09658E-008	-8.27766E-008	7.18108E-008	-2.99000E-001	3.75706E-004	6	..........a	-327.68
	40	4.1	-2.44908E-001	-2.94897E-001	-2.69903E-001	-8.79820E-009	-7.95572E-008	7.07590E-008	-2.95000E-001	3.72873E-004	6	..........a	-327.68
	42	4.3	-2.40913E-001	-2.90823E-001	-2.65868E-001	-6.71660E-009	-7.64285E-008	6.97119E-008	-2.91000E-001	4.13039E-004	6	..........a	-327.68
	44	4.5	-2.36907E-001	-2.86913E-001	-2.61910E-001	-4.98638E-009	-7.35704E-008	6.85841E-008	-2.87000E-001	4.16373E-004	6	..........a	-327.68
	46	4.7	-2.32892E-001	-2.82831E-001	-2.57862E-001	-3.04280E-009	-7.07067E-008	6.76639E-008	-2.83000E-001	3.98706E-004	6	..........a	-327.68
	48	4.9	-2.28859E-001	-2.78897E-001	-2.53878E-001	-1.58095E-009	-6.80467E-008	6.64658E-008	-2.79000E-001	3.88539E-004	6	..........a	-327.68
	50	5.1	-2.24914E-001	-2.74870E-001	-2.49892E-001	9.75958E-011	-6.54187E-008	6.55163E-008	-2.75000E-001	3.89873E-004	6	..........a	-327.68
	52	5.3	-2.20903E-001	-2.70886E-001	-2.45894E-001	1.32309E-009	-6.27187E-008	6.40418E-008	-2.71000E-001	3.98706E-004	6	..........a	-327.68
	54	5.5	-2.16915E-001	-2.66803E-001	-2.41859E-001	2.36888E-009	-6.02164E-008	6.25853E-008	-2.67000E-001	3.93539E-004	6	..........a	-327.68
	56	5.7	-2.12899E-001	-2.62895E-001	-2.37897E-001	3.65271E-009	-5.78154E-008	6.14682E-008	-2.63000E-001	3.77039E-004	6	..........a	-327.68
	58	5.9	-2.08904E-001	-2.58837E-001	-2.33870E-001	4.45415E-009	-5.54381E-008	5.98923E-008	-2.59000E-001	3.99873E-004	6	..........a	-327.68
	60	6.1	-2.04856E-001	-2.54922E-001	-2.29889E-001	5.66530E-009	-5.28758E-008	5.85411E-008	-2.55000E-001	3.82039E-004	6	..........a	-327.68
	62	6.3	-2.00904E-001	-2.50870E-001	-2.25887E-001	6.69777E-009	-5.10229E-008	5.77207E-008	-2.51000E-001	3.69706E-004	6	..........a	-327.68
	64	6.5	-1.96900E-001	-2.46902E-001	-2.21901E-001	7.61989E-009	-4.89430E-008	5.65629E-008	-2.47000E-001	3.73873E-004	6	..........a	-327.68
	66	6.7	-1.92911E-001	-2.42807E-001	-2.17859E-001	8.47700E-009	-4.69537E-008	5.54307E-008	-2.43000E-001	3.70706E-004	6	..........a	-327.68
	68	6.9	-1.88755E-001	-2.38919E-001	-2.13837E-001	9.47179E-009	-4.51495E-008	5.46213E-008	-2.39000E-001	3.68539E-004	6	..........a	-327.68
	70	7.1	-1.84908E-001	-2.34848E-001	-2.09878E-001	1.03462E-008	-4.32229E-008	5.35691E-008	-2.35000E-001	3.74539E-004	6	..........a	-327.68
	72	7.3	-1.80821E-001	-2.30902E-001	-2.05862E-001	1.10867E-008	-4.15177E-008	5.26044E-008	-2.31000E-001	3.68539E-004	6	..........a	-327.68
	74	7.5	-1.76866E-001	-2.26839E-001	-2.01852E-001	1.17301E-008	-3.99438E-008	5.16739E-008	-2.27000E-001	3.80373E-004	6	..........a	-327.68
	76	7.7	-1.72870E-001	-2.22910E-001	-1.97890E-001	1.27082E-008	-3.84073E-008	5.11155E-008	-2.23000E-001	3.60873E-004	6	..........a	-327.68
	78	7.9	-1.68897E-001	-2.18892E-001	-1.93895E-001	1.35863E-008	-3.68688E-008	5.04551E-008	-2.19000E-001	3.67373E-004	6	..........a	-327.68
	80	8.1	-1.64727E-001	-2.14955E-001	-1.89841E-001	1.42207E-008	-3.56359E-008	4.98567E-008	-2.15000E-001	3.59039E-004	6	..........a	-327.68
	82	8.3	-1.60920E-001	-2.10874E-001	-1.85897E-001	1.48155E-008	-3.44891E-008	4.93046E-008	-2.11000E-001	3.53706E-004	6	..........a	-327.68
	84	8.5	-1.56836E-001	-2.06927E-001	-1.81881E-001	1.54489E-008	-3.31943E-008	4.86432E-008	-2.07000E-001	3.61206E-004	6	..........a	-327.68
	86	8.7	-1.52902E-001	-2.02841E-001	-1.77872E-001	1.60843E-008	-3.22422E-008	4.83265E-008	-2.03000E-001	3.54873E-004	6	..........a	-327.68
	88	8.9	-1.48880E-001	-1.98922E-001	-1.73901E-001	1.65537E-008	-3.12431E-008	4.77967E-008	-1.99000E-001	3.56206E-004	6	..........a	-327.68
	90	9.1	-1.44901E-001	-1.94881E-001	-1.69891E-001	1.72108E-008	-3.02079E-008	4.74187E-008	-1.95000E-001	3.61039E-004	6	..........a	-327.68
	92	9.3	-1.40906E-001	-1.90937E-001	-1.65921E-001	1.77922E-008	-2.95425E-008	4.73347E-008	-1.91000E-001	3.62206E-004	6	..........a	-327.68
	94	9.5	-1.36917E-001	-1.86851E-001	-1.61884E-001	1.84743E-008	-2.83287E-008	4.68030E-008	-1.87000E-001	3.51373E-004	6	..........a	-327.68
	96	9.7	-1.32849E-001	-1.82914E-001	-1.57882E-001	1.90473E-008	-2.75279E-008	4.65753E-008	-1.83000E-001	3.71706E-004	6	..........a	-327.68
	98	9.9	-1.28881E-001	-1.78826E-001	-1.53853E-001	1.96437E-008	-2.67061E-008	4.63499E-008	-1.79000E-001	3.53706E-004	6	..........a	-327.68
	100	10.1	-1.24882E-001	-1.74902E-001	-1.49892E-001	2.00265E-008	-2.61371E-008	4.61635E-008	-1.75000E-001	3.78706E-004	6	..........a	-327.68